File: HOPG_cv/3mM/AgNO3_HOPG_3mM_40mv_1_cv.DTA
EXPLAIN
TAG	CV
TITLE	LABEL	Cyclic Voltammetry	Test &Identifier
DATE	LABEL	30/4/2022	Date
TIME	LABEL	16:05:55	Time
NOTES	NOTES	2	&Notes...
	30/04/22 , 5mM  AgNO3

PSTAT	PSTAT	IFC1000-09004	Potentiostat
VINIT	POTEN	1,00000E-001	F	Initial &E (V)
VLIMIT1	POTEN	1,00000E-001	F	Scan Limit &1 (V)
VLIMIT2	POTEN	8,00000E-001	F	Scan Limit &2 (V)
VFINAL	POTEN	1,00000E-001	F	Final &E (V)
SCANRATE	QUANT	3,99999E+001	&Scan Rate (mV/s)
STEPSIZE	QUANT	1,00000E+000	St&ep Size (mV)
CYCLES	IQUANT	1	C&ycles (#)
IMODE	SELECTOR	0	I/E Range &Mode
IRANGE	QUANT	1,00000E-005	&Max Current (mA)
AREA	QUANT	1,00000E+000	Electrode &Area (cm^2)
ELECTRODETYPE	SELECTOR	0	Electrode Type
STRIPPING	TOGGLE	F	Used for Stripping
POLARITY	TOGGLE	F	Signal Polarity
CONDIT	TWOPARAM	F	1,50000E+001	0,00000E+000	Conditionin&g	Time(s)	E(V)
DELAY	TWOPARAM	F	3,00000E+001	0,00000E+000	Init. De&lay	Time(s)	Stab.(mV/s)
EQDELAY	QUANT	1,00000E+001	Equil. &Time (s)
IRCOMP	SELECTOR	0	IRCom&p
PFCOR	QUANT	5,00000E+001	PF Corr. (ohm)
SAMPLINGMODE	SELECTOR	1	Sampling &Mode
EOC	QUANT	0	Open Circuit (V)
PSTATMODEL	IQUANT	48	Pstat Model
PSTATSECTION	LABEL	IFC1000-09004	Pstat Section
PSTATSERIALNO	LABEL	09004	Pstat Serial Number
CTRLMODE	IQUANT	1	Control Mode
ELECTROMETER	IQUANT	0	RE=0 or CS=1
IESTAB	IQUANT	2	I/E Stability
CASPEED	IQUANT	4	Control Amp Speed
CONVENTION	IQUANT	1	Current Convention
ICHRANGE	IQUANT	2	Ich Range
ICHRANGEMODE	TOGGLE	F	Ich Auto Range
ICHOFFSETENABLE	TOGGLE	F	Ich Offset Enable
ICHOFFSET	QUANT	0	Ich Offset (V)
ICHFILTER	IQUANT	3	Ich Filter
VCHRANGE	IQUANT	2	Vch Range
VCHRANGEMODE	TOGGLE	F	Vch Auto Range
VCHOFFSETENABLE	TOGGLE	F	Vch Offset Enable
VCHOFFSET	QUANT	0	Vch Offset (V)
VCHFILTER	IQUANT	3	Vch Filter
IERANGELOWERLIMIT	IQUANT	4	I/E Range Lower Limit
IERANGEMODE	TOGGLE	T	I/E AutoRange
IERANGE	IQUANT	5	I/E Range
ACHSELECT	IQUANT	0	Ach Select
ACHRANGE	IQUANT	2	Ach Range
ACHOFFSETENABLE	TOGGLE	F	Ach Offset Enable
ACHOFFSET	QUANT	0	Ach Offset (V)
ACHFILTER	IQUANT	1	Ach Filter
CABLEID	IQUANT	14	Cable ID
DCCALDATE	LABEL	3/18/2022	DC Calibration Date
ACCALDATE	LABEL	3/10/2016	AC Calibration Date
FRAMEWORKVERSION	QUANT	7,05	Framework Version
INSTRUMENTVERSION	LABEL	4.21	Instrument Version
CURVE1	TABLE
	Pt	T	Vf	Im	Vu	Sig	Ach	IERange	Over	Temp
	#	s	V vs. Ref.	A	V	V	V	#	bits	deg C
	0	0,025	9,98185E-002	-1,09478E-005	0,00000E+000	1,00006E-001	0,00000E+000	7	....ih..i..	-32768,00
	15	0,4	1,14771E-001	-2,95130E-005	0,00000E+000	1,14995E-001	0,00000E+000	8	...........	-32768,00
	30	0,775	1,29810E-001	-2,80250E-005	0,00000E+000	1,29996E-001	0,00000E+000	8	...........	-32768,00
	45	1,15	1,44802E-001	-2,67840E-005	0,00000E+000	1,44997E-001	0,00000E+000	8	...........	-32768,00
	60	1,525	1,59807E-001	-2,57602E-005	0,00000E+000	1,59999E-001	0,00000E+000	8	...........	-32768,00
	75	1,9	1,74807E-001	-2,48597E-005	0,00000E+000	1,75000E-001	0,00000E+000	8	...........	-32768,00
	90	2,275	1,89814E-001	-2,40398E-005	0,00000E+000	1,90001E-001	0,00000E+000	8	...........	-32768,00
	105	2,65	2,04805E-001	-2,32931E-005	0,00000E+000	2,05002E-001	0,00000E+000	8	...........	-32768,00
	120	3,025	2,19828E-001	-2,25846E-005	0,00000E+000	2,20003E-001	0,00000E+000	8	...........	-32768,00
	135	3,4	2,34826E-001	-2,19406E-005	0,00000E+000	2,35005E-001	0,00000E+000	8	...........	-32768,00
	150	3,775	2,49830E-001	-2,12762E-005	0,00000E+000	2,50006E-001	0,00000E+000	8	...........	-32768,00
	165	4,15	2,64820E-001	-2,06429E-005	0,00000E+000	2,64994E-001	0,00000E+000	8	...........	-32768,00
	180	4,525	2,79810E-001	-1,99384E-005	0,00000E+000	2,79996E-001	0,00000E+000	8	...........	-32768,00
	195	4,9	2,94798E-001	-1,92407E-005	0,00000E+000	2,94997E-001	0,00000E+000	8	...........	-32768,00
	210	5,275	3,09830E-001	-1,83468E-005	0,00000E+000	3,09998E-001	0,00000E+000	8	...........	-32768,00
	225	5,65	3,24841E-001	-1,73124E-005	0,00000E+000	3,24999E-001	0,00000E+000	8	...........	-32768,00
	240	6,025	3,39838E-001	-1,55221E-005	0,00000E+000	3,40000E-001	0,00000E+000	8	...........	-32768,00
	255	6,4	3,54830E-001	-1,31104E-005	0,00000E+000	3,55002E-001	0,00000E+000	8	...........	-32768,00
	270	6,775	3,69839E-001	-1,02872E-005	0,00000E+000	3,70003E-001	0,00000E+000	8	...........	-32768,00
	285	7,15	3,84875E-001	-6,62448E-006	0,00000E+000	3,85004E-001	0,00000E+000	7	...........	-32768,00
	300	7,525	3,99866E-001	-1,61507E-006	0,00000E+000	4,00005E-001	0,00000E+000	7	...........	-32768,00
	315	7,9	4,14816E-001	4,55112E-006	0,00000E+000	4,14994E-001	0,00000E+000	7	...........	-32768,00
	330	8,275	4,29863E-001	1,16070E-005	0,00000E+000	4,29995E-001	0,00000E+000	8	...........	-32768,00
	345	8,65	4,44843E-001	1,95033E-005	0,00000E+000	4,44996E-001	0,00000E+000	8	...........	-32768,00
	360	9,025	4,59834E-001	3,00125E-005	0,00000E+000	4,59998E-001	0,00000E+000	8	...........	-32768,00
	375	9,4	4,74873E-001	4,51112E-005	0,00000E+000	4,74999E-001	0,00000E+000	8	...........	-32768,00
	390	9,775	4,89855E-001	6,60535E-005	0,00000E+000	4,90000E-001	0,00000E+000	8	...........	-32768,00
	405	10,15	5,04872E-001	9,36528E-005	0,00000E+000	5,05001E-001	0,00000E+000	9	...........	-32768,00
	420	10,525	5,19887E-001	1,28301E-004	0,00000E+000	5,20002E-001	0,00000E+000	9	...........	-32768,00
	435	10,9	5,34885E-001	1,70148E-004	0,00000E+000	5,35004E-001	0,00000E+000	9	...........	-32768,00
	450	11,275	5,49885E-001	2,18825E-004	0,00000E+000	5,50005E-001	0,00000E+000	9	...........	-32768,00
	465	11,65	5,64915E-001	2,73208E-004	0,00000E+000	5,65006E-001	0,00000E+000	9	...........	-32768,00
	480	12,025	5,79884E-001	3,24353E-004	0,00000E+000	5,79995E-001	0,00000E+000	9	...........	-32768,00
	495	12,4	5,94887E-001	3,39790E-004	0,00000E+000	5,94996E-001	0,00000E+000	9	...........	-32768,00
	510	12,775	6,09895E-001	2,43998E-004	0,00000E+000	6,09997E-001	0,00000E+000	9	...........	-32768,00
	525	13,15	6,24894E-001	9,22153E-005	0,00000E+000	6,24998E-001	0,00000E+000	9	...........	-32768,00
	540	13,525	6,39891E-001	7,38866E-005	0,00000E+000	6,40000E-001	0,00000E+000	8	...........	-32768,00
	555	13,9	6,54916E-001	6,66647E-005	0,00000E+000	6,55001E-001	0,00000E+000	8	...........	-32768,00
	570	14,275	6,69922E-001	6,26886E-005	0,00000E+000	6,70002E-001	0,00000E+000	8	...........	-32768,00
	585	14,65	6,84922E-001	6,01779E-005	0,00000E+000	6,85003E-001	0,00000E+000	8	...........	-32768,00
	600	15,025	6,99930E-001	5,86550E-005	0,00000E+000	7,00004E-001	0,00000E+000	8	...........	-32768,00
	615	15,4	7,14925E-001	5,77712E-005	0,00000E+000	7,15006E-001	0,00000E+000	8	...........	-32768,00
	630	15,775	7,29920E-001	5,72567E-005	0,00000E+000	7,29994E-001	0,00000E+000	8	...........	-32768,00
	645	16,15	7,44943E-001	5,66958E-005	0,00000E+000	7,44995E-001	0,00000E+000	8	...........	-32768,00
	660	16,525	7,59945E-001	5,64393E-005	0,00000E+000	7,59997E-001	0,00000E+000	8	...........	-32768,00
	675	16,9	7,74956E-001	5,63241E-005	0,00000E+000	7,74998E-001	0,00000E+000	8	...........	-32768,00
	690	17,275	7,89965E-001	5,62615E-005	0,00000E+000	7,89999E-001	0,00000E+000	8	...........	-32768,00
	705	17,65	7,94965E-001	5,37357E-005	0,00000E+000	7,94999E-001	0,00000E+000	8	...........	-32768,00
	720	18,025	7,79948E-001	4,76625E-005	0,00000E+000	7,79998E-001	0,00000E+000	8	...........	-32768,00
	735	18,4	7,64927E-001	4,28241E-005	0,00000E+000	7,64997E-001	0,00000E+000	8	...........	-32768,00
	750	18,775	7,49938E-001	3,87981E-005	0,00000E+000	7,49996E-001	0,00000E+000	8	...........	-32768,00
	765	19,15	7,34934E-001	3,53536E-005	0,00000E+000	7,34995E-001	0,00000E+000	8	...........	-32768,00
	780	19,525	7,19954E-001	3,23288E-005	0,00000E+000	7,20006E-001	0,00000E+000	8	...........	-32768,00
	795	19,9	7,04917E-001	2,96385E-005	0,00000E+000	7,05005E-001	0,00000E+000	8	...........	-32768,00
	810	20,275	6,89929E-001	2,72259E-005	0,00000E+000	6,90004E-001	0,00000E+000	8	...........	-32768,00
	825	20,65	6,74906E-001	2,50485E-005	0,00000E+000	6,75002E-001	0,00000E+000	8	...........	-32768,00
	840	21,025	6,59910E-001	2,30168E-005	0,00000E+000	6,60001E-001	0,00000E+000	8	...........	-32768,00
	855	21,4	6,44912E-001	2,11696E-005	0,00000E+000	6,45000E-001	0,00000E+000	8	...........	-32768,00
	870	21,775	6,29904E-001	1,93973E-005	0,00000E+000	6,29999E-001	0,00000E+000	8	...........	-32768,00
	885	22,15	6,14888E-001	1,77644E-005	0,00000E+000	6,14998E-001	0,00000E+000	8	...........	-32768,00
	900	22,525	5,99882E-001	1,61703E-005	0,00000E+000	5,99996E-001	0,00000E+000	8	...........	-32768,00
	915	22,9	5,84888E-001	1,46514E-005	0,00000E+000	5,84995E-001	0,00000E+000	8	...........	-32768,00
	930	23,275	5,69874E-001	1,31460E-005	0,00000E+000	5,69994E-001	0,00000E+000	8	...........	-32768,00
	945	23,65	5,54889E-001	1,16872E-005	0,00000E+000	5,55005E-001	0,00000E+000	8	...........	-32768,00
	960	24,025	5,39891E-001	1,02620E-005	0,00000E+000	5,40004E-001	0,00000E+000	8	...........	-32768,00
	975	24,4	5,24857E-001	8,97823E-006	0,00000E+000	5,25003E-001	0,00000E+000	8	...........	-32768,00
	990	24,775	5,09870E-001	7,82098E-006	0,00000E+000	5,10002E-001	0,00000E+000	7	...........	-32768,00
	1005	25,15	4,94845E-001	6,74189E-006	0,00000E+000	4,95000E-001	0,00000E+000	7	...........	-32768,00
	1020	25,525	4,79866E-001	5,60873E-006	0,00000E+000	4,79999E-001	0,00000E+000	7	...........	-32768,00
	1035	25,9	4,64855E-001	4,37334E-006	0,00000E+000	4,64998E-001	0,00000E+000	7	...........	-32768,00
	1050	26,275	4,49851E-001	2,45979E-006	0,00000E+000	4,49997E-001	0,00000E+000	7	...........	-32768,00
	1065	26,65	4,34849E-001	-5,35889E-006	0,00000E+000	4,34996E-001	0,00000E+000	7	...........	-32768,00
	1080	27,025	4,19850E-001	-3,30123E-005	0,00000E+000	4,19994E-001	0,00000E+000	8	...........	-32768,00
	1095	27,4	4,04869E-001	-8,06567E-005	0,00000E+000	4,05006E-001	0,00000E+000	8	...........	-32768,00
	1110	27,775	3,89864E-001	-1,23663E-004	0,00000E+000	3,90004E-001	0,00000E+000	9	...........	-32768,00
	1125	28,15	3,74857E-001	-1,44404E-004	0,00000E+000	3,75003E-001	0,00000E+000	9	...........	-32768,00
	1140	28,525	3,59855E-001	-1,45330E-004	0,00000E+000	3,60002E-001	0,00000E+000	9	...........	-32768,00
	1155	28,9	3,44835E-001	-1,35813E-004	0,00000E+000	3,45001E-001	0,00000E+000	9	...........	-32768,00
	1170	29,275	3,29826E-001	-1,23173E-004	0,00000E+000	3,30000E-001	0,00000E+000	9	...........	-32768,00
	1185	29,65	3,14820E-001	-1,10989E-004	0,00000E+000	3,14998E-001	0,00000E+000	9	...........	-32768,00
	1200	30,025	2,99828E-001	-1,00416E-004	0,00000E+000	2,99997E-001	0,00000E+000	9	...........	-32768,00
	1215	30,4	2,84826E-001	-9,18645E-005	0,00000E+000	2,84996E-001	0,00000E+000	9	...........	-32768,00
	1230	30,775	2,69833E-001	-8,48278E-005	0,00000E+000	2,69995E-001	0,00000E+000	9	...........	-32768,00
	1245	31,15	2,54828E-001	-7,91745E-005	0,00000E+000	2,55006E-001	0,00000E+000	8	...........	-32768,00
	1260	31,525	2,39815E-001	-7,45778E-005	0,00000E+000	2,40005E-001	0,00000E+000	8	...........	-32768,00
	1275	31,9	2,24823E-001	-7,09990E-005	0,00000E+000	2,25004E-001	0,00000E+000	8	...........	-32768,00
	1290	32,275	2,09820E-001	-6,82550E-005	0,00000E+000	2,10003E-001	0,00000E+000	8	...........	-32768,00
	1305	32,65	1,94818E-001	-6,59628E-005	0,00000E+000	1,95001E-001	0,00000E+000	8	...........	-32768,00
	1320	33,025	1,79827E-001	-6,35987E-005	0,00000E+000	1,80000E-001	0,00000E+000	8	...........	-32768,00
	1335	33,4	1,64800E-001	-6,12351E-005	0,00000E+000	1,64999E-001	0,00000E+000	8	...........	-32768,00
	1350	33,775	1,49796E-001	-5,89798E-005	0,00000E+000	1,49998E-001	0,00000E+000	8	...........	-32768,00
	1365	34,15	1,34797E-001	-5,71604E-005	0,00000E+000	1,34997E-001	0,00000E+000	8	...........	-32768,00
	1380	34,525	1,19801E-001	-5,56857E-005	0,00000E+000	1,19995E-001	0,00000E+000	8	...........	-32768,00
	1395	34,9	1,04790E-001	-5,47186E-005	0,00000E+000	1,04994E-001	0,00000E+000	8	...........	-32768,00
	1400	35,025	9,97912E-002	-5,44067E-005	0,00000E+000	1,00006E-001	0,00000E+000	8	...........	-32768,00