File: HOPG_cv/3mM/AgNO3_HOPG_3mM_60mv_1_cv.DTA
EXPLAIN
TAG	CV
TITLE	LABEL	Cyclic Voltammetry	Test &Identifier
DATE	LABEL	30/4/2022	Date
TIME	LABEL	16:03:48	Time
NOTES	NOTES	2	&Notes...
	30/04/22 , 5mM  AgNO3

PSTAT	PSTAT	IFC1000-09004	Potentiostat
VINIT	POTEN	1,00000E-001	F	Initial &E (V)
VLIMIT1	POTEN	1,00000E-001	F	Scan Limit &1 (V)
VLIMIT2	POTEN	8,00000E-001	F	Scan Limit &2 (V)
VFINAL	POTEN	1,00000E-001	F	Final &E (V)
SCANRATE	QUANT	5,99999E+001	&Scan Rate (mV/s)
STEPSIZE	QUANT	1,00000E+000	St&ep Size (mV)
CYCLES	IQUANT	1	C&ycles (#)
IMODE	SELECTOR	0	I/E Range &Mode
IRANGE	QUANT	1,00000E-005	&Max Current (mA)
AREA	QUANT	1,00000E+000	Electrode &Area (cm^2)
ELECTRODETYPE	SELECTOR	0	Electrode Type
STRIPPING	TOGGLE	F	Used for Stripping
POLARITY	TOGGLE	F	Signal Polarity
CONDIT	TWOPARAM	F	1,50000E+001	0,00000E+000	Conditionin&g	Time(s)	E(V)
DELAY	TWOPARAM	F	3,00000E+001	0,00000E+000	Init. De&lay	Time(s)	Stab.(mV/s)
EQDELAY	QUANT	1,00000E+001	Equil. &Time (s)
IRCOMP	SELECTOR	0	IRCom&p
PFCOR	QUANT	5,00000E+001	PF Corr. (ohm)
SAMPLINGMODE	SELECTOR	1	Sampling &Mode
EOC	QUANT	0	Open Circuit (V)
PSTATMODEL	IQUANT	48	Pstat Model
PSTATSECTION	LABEL	IFC1000-09004	Pstat Section
PSTATSERIALNO	LABEL	09004	Pstat Serial Number
CTRLMODE	IQUANT	1	Control Mode
ELECTROMETER	IQUANT	0	RE=0 or CS=1
IESTAB	IQUANT	2	I/E Stability
CASPEED	IQUANT	4	Control Amp Speed
CONVENTION	IQUANT	1	Current Convention
ICHRANGE	IQUANT	2	Ich Range
ICHRANGEMODE	TOGGLE	F	Ich Auto Range
ICHOFFSETENABLE	TOGGLE	F	Ich Offset Enable
ICHOFFSET	QUANT	0	Ich Offset (V)
ICHFILTER	IQUANT	3	Ich Filter
VCHRANGE	IQUANT	2	Vch Range
VCHRANGEMODE	TOGGLE	F	Vch Auto Range
VCHOFFSETENABLE	TOGGLE	F	Vch Offset Enable
VCHOFFSET	QUANT	0	Vch Offset (V)
VCHFILTER	IQUANT	3	Vch Filter
IERANGELOWERLIMIT	IQUANT	4	I/E Range Lower Limit
IERANGEMODE	TOGGLE	T	I/E AutoRange
IERANGE	IQUANT	5	I/E Range
ACHSELECT	IQUANT	0	Ach Select
ACHRANGE	IQUANT	2	Ach Range
ACHOFFSETENABLE	TOGGLE	F	Ach Offset Enable
ACHOFFSET	QUANT	0	Ach Offset (V)
ACHFILTER	IQUANT	1	Ach Filter
CABLEID	IQUANT	14	Cable ID
DCCALDATE	LABEL	3/18/2022	DC Calibration Date
ACCALDATE	LABEL	3/10/2016	AC Calibration Date
FRAMEWORKVERSION	QUANT	7,05	Framework Version
INSTRUMENTVERSION	LABEL	4.21	Instrument Version
CURVE1	TABLE
	Pt	T	Vf	Im	Vu	Sig	Ach	IERange	Over	Temp
	#	s	V vs. Ref.	A	V	V	V	#	bits	deg C
	0	0,016667	9,98319E-002	-1,09478E-005	0,00000E+000	1,00006E-001	0,00000E+000	7	....ih..i..	-32768,00
	15	0,266667	1,14793E-001	-3,16686E-005	0,00000E+000	1,14995E-001	0,00000E+000	8	...........	-32768,00
	30	0,516667	1,29818E-001	-3,00735E-005	0,00000E+000	1,29996E-001	0,00000E+000	8	...........	-32768,00
	45	0,766667	1,44798E-001	-2,88706E-005	0,00000E+000	1,44997E-001	0,00000E+000	8	...........	-32768,00
	60	1,01667	1,59810E-001	-2,78102E-005	0,00000E+000	1,59999E-001	0,00000E+000	8	...........	-32768,00
	75	1,26667	1,74816E-001	-2,69128E-005	0,00000E+000	1,75000E-001	0,00000E+000	8	...........	-32768,00
	90	1,51667	1,89822E-001	-2,61140E-005	0,00000E+000	1,90001E-001	0,00000E+000	8	...........	-32768,00
	105	1,76667	2,04802E-001	-2,53956E-005	0,00000E+000	2,05002E-001	0,00000E+000	8	...........	-32768,00
	120	2,01667	2,19824E-001	-2,47276E-005	0,00000E+000	2,20003E-001	0,00000E+000	8	...........	-32768,00
	135	2,26667	2,34822E-001	-2,40863E-005	0,00000E+000	2,35005E-001	0,00000E+000	8	...........	-32768,00
	150	2,51667	2,49835E-001	-2,34487E-005	0,00000E+000	2,50006E-001	0,00000E+000	8	...........	-32768,00
	165	2,76667	2,64819E-001	-2,28074E-005	0,00000E+000	2,64994E-001	0,00000E+000	8	...........	-32768,00
	180	3,01667	2,79814E-001	-2,21347E-005	0,00000E+000	2,79996E-001	0,00000E+000	8	...........	-32768,00
	195	3,26667	2,94811E-001	-2,13804E-005	0,00000E+000	2,94997E-001	0,00000E+000	8	...........	-32768,00
	210	3,51667	3,09828E-001	-2,04726E-005	0,00000E+000	3,09998E-001	0,00000E+000	8	...........	-32768,00
	225	3,76667	3,24849E-001	-1,93200E-005	0,00000E+000	3,24999E-001	0,00000E+000	8	...........	-32768,00
	240	4,01667	3,39851E-001	-1,75312E-005	0,00000E+000	3,40000E-001	0,00000E+000	8	...........	-32768,00
	255	4,26667	3,54839E-001	-1,45756E-005	0,00000E+000	3,55002E-001	0,00000E+000	8	...........	-32768,00
	270	4,51667	3,69845E-001	-1,13812E-005	0,00000E+000	3,70003E-001	0,00000E+000	8	...........	-32768,00
	285	4,76667	3,84869E-001	-7,06395E-006	0,00000E+000	3,85004E-001	0,00000E+000	7	...........	-32768,00
	300	5,01667	3,99857E-001	-1,27533E-006	0,00000E+000	4,00005E-001	0,00000E+000	7	...........	-32768,00
	315	5,26667	4,14840E-001	5,91771E-006	0,00000E+000	4,14994E-001	0,00000E+000	7	...........	-32768,00
	330	5,51667	4,29855E-001	1,44289E-005	0,00000E+000	4,29995E-001	0,00000E+000	8	...........	-32768,00
	345	5,76667	4,44839E-001	2,42950E-005	0,00000E+000	4,44996E-001	0,00000E+000	8	...........	-32768,00
	360	6,01667	4,59836E-001	3,71455E-005	0,00000E+000	4,59998E-001	0,00000E+000	8	...........	-32768,00
	375	6,26667	4,74865E-001	5,52872E-005	0,00000E+000	4,74999E-001	0,00000E+000	8	...........	-32768,00
	390	6,51667	4,89867E-001	8,00860E-005	0,00000E+000	4,90000E-001	0,00000E+000	8	...........	-32768,00
	405	6,76667	5,04865E-001	1,12344E-004	0,00000E+000	5,05001E-001	0,00000E+000	9	...........	-32768,00
	420	7,01667	5,19881E-001	1,52619E-004	0,00000E+000	5,20002E-001	0,00000E+000	9	...........	-32768,00
	435	7,26667	5,34878E-001	2,00437E-004	0,00000E+000	5,35004E-001	0,00000E+000	9	...........	-32768,00
	450	7,51667	5,49896E-001	2,54884E-004	0,00000E+000	5,50005E-001	0,00000E+000	9	...........	-32768,00
	465	7,76667	5,64918E-001	3,15557E-004	0,00000E+000	5,65006E-001	0,00000E+000	9	...........	-32768,00
	480	8,01667	5,79891E-001	3,78968E-004	0,00000E+000	5,79995E-001	0,00000E+000	9	...........	-32768,00
	495	8,26667	5,94892E-001	4,36864E-004	0,00000E+000	5,94996E-001	0,00000E+000	9	...........	-32768,00
	510	8,51667	6,09897E-001	4,55275E-004	0,00000E+000	6,09997E-001	0,00000E+000	9	...........	-32768,00
	525	8,76667	6,24885E-001	3,80765E-004	0,00000E+000	6,24998E-001	0,00000E+000	9	...........	-32768,00
	540	9,01667	6,39919E-001	1,46348E-004	0,00000E+000	6,40000E-001	0,00000E+000	9	...........	-32768,00
	555	9,26667	6,54918E-001	1,01633E-004	0,00000E+000	6,55001E-001	0,00000E+000	9	...........	-32768,00
	570	9,5167	6,69935E-001	8,75845E-005	0,00000E+000	6,70002E-001	0,00000E+000	9	...........	-32768,00
	585	9,7667	6,84927E-001	8,00012E-005	0,00000E+000	6,85003E-001	0,00000E+000	8	...........	-32768,00
	600	10,0167	6,99935E-001	7,52684E-005	0,00000E+000	7,00004E-001	0,00000E+000	8	...........	-32768,00
	615	10,2667	7,14929E-001	7,21155E-005	0,00000E+000	7,15006E-001	0,00000E+000	8	...........	-32768,00
	630	10,5167	7,29923E-001	6,99570E-005	0,00000E+000	7,29994E-001	0,00000E+000	8	...........	-32768,00
	645	10,7667	7,44948E-001	6,82449E-005	0,00000E+000	7,44995E-001	0,00000E+000	8	...........	-32768,00
	660	11,0167	7,59944E-001	6,70825E-005	0,00000E+000	7,59997E-001	0,00000E+000	8	...........	-32768,00
	675	11,2667	7,74961E-001	6,61403E-005	0,00000E+000	7,74998E-001	0,00000E+000	8	...........	-32768,00
	690	11,5167	7,89952E-001	6,53966E-005	0,00000E+000	7,89999E-001	0,00000E+000	8	...........	-32768,00
	705	11,7667	7,94980E-001	6,17275E-005	0,00000E+000	7,94999E-001	0,00000E+000	8	...........	-32768,00
	720	12,0167	7,79959E-001	5,41323E-005	0,00000E+000	7,79998E-001	0,00000E+000	8	...........	-32768,00
	735	12,2667	7,64946E-001	4,81820E-005	0,00000E+000	7,64997E-001	0,00000E+000	8	...........	-32768,00
	750	12,5167	7,49956E-001	4,32447E-005	0,00000E+000	7,49996E-001	0,00000E+000	8	...........	-32768,00
	765	12,7667	7,34947E-001	3,91113E-005	0,00000E+000	7,34995E-001	0,00000E+000	8	...........	-32768,00
	780	13,0167	7,19958E-001	3,54994E-005	0,00000E+000	7,20006E-001	0,00000E+000	8	...........	-32768,00
	795	13,2667	7,04927E-001	3,23470E-005	0,00000E+000	7,05005E-001	0,00000E+000	8	...........	-32768,00
	810	13,5167	6,89928E-001	2,95393E-005	0,00000E+000	6,90004E-001	0,00000E+000	8	...........	-32768,00
	825	13,7667	6,74922E-001	2,69989E-005	0,00000E+000	6,75002E-001	0,00000E+000	8	...........	-32768,00
	840	14,0167	6,59902E-001	2,46729E-005	0,00000E+000	6,60001E-001	0,00000E+000	8	...........	-32768,00
	855	14,2667	6,44908E-001	2,25386E-005	0,00000E+000	6,45000E-001	0,00000E+000	8	...........	-32768,00
	870	14,5167	6,29912E-001	2,05377E-005	0,00000E+000	6,29999E-001	0,00000E+000	8	...........	-32768,00
	885	14,7667	6,14881E-001	1,86465E-005	0,00000E+000	6,14998E-001	0,00000E+000	8	...........	-32768,00
	900	15,0167	5,99885E-001	1,68448E-005	0,00000E+000	5,99996E-001	0,00000E+000	8	...........	-32768,00
	915	15,2667	5,84885E-001	1,50966E-005	0,00000E+000	5,84995E-001	0,00000E+000	8	...........	-32768,00
	930	15,5167	5,69867E-001	1,33793E-005	0,00000E+000	5,69994E-001	0,00000E+000	8	...........	-32768,00
	945	15,7667	5,54887E-001	1,17006E-005	0,00000E+000	5,55005E-001	0,00000E+000	8	...........	-32768,00
	960	16,0167	5,39888E-001	1,01033E-005	0,00000E+000	5,40004E-001	0,00000E+000	8	...........	-32768,00
	975	16,2667	5,24868E-001	8,68859E-006	0,00000E+000	5,25003E-001	0,00000E+000	8	...........	-32768,00
	990	16,5167	5,09849E-001	7,43625E-006	0,00000E+000	5,10002E-001	0,00000E+000	7	...........	-32768,00
	1005	16,7667	4,94857E-001	6,22968E-006	0,00000E+000	4,95000E-001	0,00000E+000	7	...........	-32768,00
	1020	17,0167	4,79868E-001	4,96535E-006	0,00000E+000	4,79999E-001	0,00000E+000	7	...........	-32768,00
	1035	17,2667	4,64850E-001	3,55430E-006	0,00000E+000	4,64998E-001	0,00000E+000	7	...........	-32768,00
	1050	17,5167	4,49852E-001	1,37027E-006	0,00000E+000	4,49997E-001	0,00000E+000	7	...........	-32768,00
	1065	17,7667	4,34851E-001	-7,97225E-006	0,00000E+000	4,34996E-001	0,00000E+000	7	...........	-32768,00
	1080	18,0167	4,19841E-001	-3,98127E-005	0,00000E+000	4,19994E-001	0,00000E+000	8	...........	-32768,00
	1095	18,2667	4,04853E-001	-9,61440E-005	0,00000E+000	4,05006E-001	0,00000E+000	9	...........	-32768,00
	1110	18,5167	3,89865E-001	-1,52284E-004	0,00000E+000	3,90004E-001	0,00000E+000	9	...........	-32768,00
	1125	18,7667	3,74860E-001	-1,83714E-004	0,00000E+000	3,75003E-001	0,00000E+000	9	...........	-32768,00
	1140	19,0167	3,59860E-001	-1,89802E-004	0,00000E+000	3,60002E-001	0,00000E+000	9	...........	-32768,00
	1155	19,2667	3,44832E-001	-1,80650E-004	0,00000E+000	3,45001E-001	0,00000E+000	9	...........	-32768,00
	1170	19,5167	3,29837E-001	-1,65372E-004	0,00000E+000	3,30000E-001	0,00000E+000	9	...........	-32768,00
	1185	19,7667	3,14829E-001	-1,49314E-004	0,00000E+000	3,14998E-001	0,00000E+000	9	...........	-32768,00
	1200	20,0167	2,99819E-001	-1,34895E-004	0,00000E+000	2,99997E-001	0,00000E+000	9	...........	-32768,00
	1215	20,2667	2,84826E-001	-1,22709E-004	0,00000E+000	2,84996E-001	0,00000E+000	9	...........	-32768,00
	1230	20,5167	2,69840E-001	-1,12795E-004	0,00000E+000	2,69995E-001	0,00000E+000	9	...........	-32768,00
	1245	20,7667	2,54806E-001	-1,04610E-004	0,00000E+000	2,55006E-001	0,00000E+000	9	...........	-32768,00
	1260	21,0167	2,39793E-001	-9,78177E-005	0,00000E+000	2,40005E-001	0,00000E+000	9	...........	-32768,00
	1275	21,2667	2,24803E-001	-9,22929E-005	0,00000E+000	2,25004E-001	0,00000E+000	9	...........	-32768,00
	1290	21,5167	2,09819E-001	-8,78985E-005	0,00000E+000	2,10003E-001	0,00000E+000	9	...........	-32768,00
	1305	21,7667	1,94803E-001	-8,45006E-005	0,00000E+000	1,95001E-001	0,00000E+000	9	...........	-32768,00
	1320	22,0167	1,79826E-001	-8,16118E-005	0,00000E+000	1,80000E-001	0,00000E+000	9	...........	-32768,00
	1335	22,2667	1,64803E-001	-7,89708E-005	0,00000E+000	1,64999E-001	0,00000E+000	8	...........	-32768,00
	1350	22,5167	1,49797E-001	-7,63942E-005	0,00000E+000	1,49998E-001	0,00000E+000	8	...........	-32768,00
	1365	22,7667	1,34803E-001	-7,38122E-005	0,00000E+000	1,34997E-001	0,00000E+000	8	...........	-32768,00
	1380	23,0167	1,19803E-001	-7,14604E-005	0,00000E+000	1,19995E-001	0,00000E+000	8	...........	-32768,00
	1395	23,2667	1,04790E-001	-6,93666E-005	0,00000E+000	1,04994E-001	0,00000E+000	8	...........	-32768,00
	1400	23,35	9,98064E-002	-6,87743E-005	0,00000E+000	1,00006E-001	0,00000E+000	8	...........	-32768,00