File: HOPG_cv/3mM/AgNO3_HOPG_3mM_10mv_1_cv.DTA
EXPLAIN
TAG	CV
TITLE	LABEL	Cyclic Voltammetry	Test &Identifier
DATE	LABEL	30/4/2022	Date
TIME	LABEL	16:11:20	Time
NOTES	NOTES	2	&Notes...
	30/04/22 , 5mM  AgNO3

PSTAT	PSTAT	IFC1000-09004	Potentiostat
VINIT	POTEN	1,00000E-001	F	Initial &E (V)
VLIMIT1	POTEN	1,00000E-001	F	Scan Limit &1 (V)
VLIMIT2	POTEN	8,00000E-001	F	Scan Limit &2 (V)
VFINAL	POTEN	1,00000E-001	F	Final &E (V)
SCANRATE	QUANT	9,99998E+000	&Scan Rate (mV/s)
STEPSIZE	QUANT	1,00000E+000	St&ep Size (mV)
CYCLES	IQUANT	1	C&ycles (#)
IMODE	SELECTOR	0	I/E Range &Mode
IRANGE	QUANT	1,00000E-005	&Max Current (mA)
AREA	QUANT	1,00000E+000	Electrode &Area (cm^2)
ELECTRODETYPE	SELECTOR	0	Electrode Type
STRIPPING	TOGGLE	F	Used for Stripping
POLARITY	TOGGLE	F	Signal Polarity
CONDIT	TWOPARAM	F	1,50000E+001	0,00000E+000	Conditionin&g	Time(s)	E(V)
DELAY	TWOPARAM	F	3,00000E+001	0,00000E+000	Init. De&lay	Time(s)	Stab.(mV/s)
EQDELAY	QUANT	1,00000E+001	Equil. &Time (s)
IRCOMP	SELECTOR	0	IRCom&p
PFCOR	QUANT	5,00000E+001	PF Corr. (ohm)
SAMPLINGMODE	SELECTOR	1	Sampling &Mode
EOC	QUANT	0	Open Circuit (V)
PSTATMODEL	IQUANT	48	Pstat Model
PSTATSECTION	LABEL	IFC1000-09004	Pstat Section
PSTATSERIALNO	LABEL	09004	Pstat Serial Number
CTRLMODE	IQUANT	1	Control Mode
ELECTROMETER	IQUANT	0	RE=0 or CS=1
IESTAB	IQUANT	2	I/E Stability
CASPEED	IQUANT	4	Control Amp Speed
CONVENTION	IQUANT	1	Current Convention
ICHRANGE	IQUANT	2	Ich Range
ICHRANGEMODE	TOGGLE	F	Ich Auto Range
ICHOFFSETENABLE	TOGGLE	F	Ich Offset Enable
ICHOFFSET	QUANT	0	Ich Offset (V)
ICHFILTER	IQUANT	3	Ich Filter
VCHRANGE	IQUANT	2	Vch Range
VCHRANGEMODE	TOGGLE	F	Vch Auto Range
VCHOFFSETENABLE	TOGGLE	F	Vch Offset Enable
VCHOFFSET	QUANT	0	Vch Offset (V)
VCHFILTER	IQUANT	3	Vch Filter
IERANGELOWERLIMIT	IQUANT	4	I/E Range Lower Limit
IERANGEMODE	TOGGLE	T	I/E AutoRange
IERANGE	IQUANT	5	I/E Range
ACHSELECT	IQUANT	0	Ach Select
ACHRANGE	IQUANT	2	Ach Range
ACHOFFSETENABLE	TOGGLE	F	Ach Offset Enable
ACHOFFSET	QUANT	0	Ach Offset (V)
ACHFILTER	IQUANT	1	Ach Filter
CABLEID	IQUANT	14	Cable ID
DCCALDATE	LABEL	3/18/2022	DC Calibration Date
ACCALDATE	LABEL	3/10/2016	AC Calibration Date
FRAMEWORKVERSION	QUANT	7,05	Framework Version
INSTRUMENTVERSION	LABEL	4.21	Instrument Version
CURVE1	TABLE
	Pt	T	Vf	Im	Vu	Sig	Ach	IERange	Over	Temp
	#	s	V vs. Ref.	A	V	V	V	#	bits	deg C
	0	0,1	9,98249E-002	-1,09478E-005	0,00000E+000	1,00006E-001	0,00000E+000	7	....ih..i..	-32768,00
	14	1,5	1,13781E-001	-2,89243E-005	0,00000E+000	1,13995E-001	0,00000E+000	8	...........	-32768,00
	28	2,9	1,27796E-001	-2,71739E-005	0,00000E+000	1,27996E-001	0,00000E+000	8	...........	-32768,00
	42	4,3	1,41808E-001	-2,57846E-005	0,00000E+000	1,41997E-001	0,00000E+000	8	...........	-32768,00
	56	5,7	1,55797E-001	-2,45101E-005	0,00000E+000	1,55998E-001	0,00000E+000	8	...........	-32768,00
	70	7,1	1,69815E-001	-2,34423E-005	0,00000E+000	1,69999E-001	0,00000E+000	8	...........	-32768,00
	84	8,5	1,83829E-001	-2,24998E-005	0,00000E+000	1,84000E-001	0,00000E+000	8	...........	-32768,00
	98	9,9	1,97809E-001	-2,16032E-005	0,00000E+000	1,98002E-001	0,00000E+000	8	...........	-32768,00
	112	11,3	2,11809E-001	-2,07897E-005	0,00000E+000	2,12003E-001	0,00000E+000	8	...........	-32768,00
	126	12,7	2,25810E-001	-2,00467E-005	0,00000E+000	2,26004E-001	0,00000E+000	8	...........	-32768,00
	140	14,1	2,39808E-001	-1,93261E-005	0,00000E+000	2,40005E-001	0,00000E+000	8	...........	-32768,00
	154	15,5	2,53817E-001	-1,86431E-005	0,00000E+000	2,54006E-001	0,00000E+000	8	...........	-32768,00
	168	16,9	2,67810E-001	-1,79767E-005	0,00000E+000	2,67995E-001	0,00000E+000	8	...........	-32768,00
	182	18,3	2,81820E-001	-1,73183E-005	0,00000E+000	2,81996E-001	0,00000E+000	8	...........	-32768,00
	196	19,7	2,95838E-001	-1,66426E-005	0,00000E+000	2,95997E-001	0,00000E+000	8	...........	-32768,00
	210	21,1	3,09824E-001	-1,59223E-005	0,00000E+000	3,09998E-001	0,00000E+000	8	...........	-32768,00
	224	22,5	3,23836E-001	-1,51202E-005	0,00000E+000	3,23999E-001	0,00000E+000	8	...........	-32768,00
	238	23,9	3,37845E-001	-1,40057E-005	0,00000E+000	3,38000E-001	0,00000E+000	8	...........	-32768,00
	252	25,3	3,51835E-001	-1,27988E-005	0,00000E+000	3,52001E-001	0,00000E+000	8	...........	-32768,00
	266	26,7	3,65850E-001	-1,13925E-005	0,00000E+000	3,66003E-001	0,00000E+000	8	...........	-32768,00
	280	28,1	3,79846E-001	-9,55475E-006	0,00000E+000	3,80004E-001	0,00000E+000	8	...........	-32768,00
	294	29,5	3,93851E-001	-6,99552E-006	0,00000E+000	3,94005E-001	0,00000E+000	7	...........	-32768,00
	308	30,9	4,07860E-001	-3,61972E-006	0,00000E+000	4,08006E-001	0,00000E+000	7	...........	-32768,00
	322	32,3	4,21828E-001	5,77516E-007	0,00000E+000	4,21995E-001	0,00000E+000	7	...........	-32768,00
	336	33,7	4,35840E-001	5,34764E-006	0,00000E+000	4,35996E-001	0,00000E+000	7	...........	-32768,00
	350	35,1	4,49854E-001	1,03527E-005	0,00000E+000	4,49997E-001	0,00000E+000	8	...........	-32768,00
	364	36,5	4,63857E-001	1,64070E-005	0,00000E+000	4,63998E-001	0,00000E+000	8	...........	-32768,00
	378	37,9	4,77868E-001	2,52906E-005	0,00000E+000	4,77999E-001	0,00000E+000	8	...........	-32768,00
	392	39,3	4,91864E-001	3,83247E-005	0,00000E+000	4,92000E-001	0,00000E+000	8	...........	-32768,00
	406	40,7	5,05863E-001	5,60265E-005	0,00000E+000	5,06001E-001	0,00000E+000	8	...........	-32768,00
	420	42,1	5,19881E-001	7,80606E-005	0,00000E+000	5,20002E-001	0,00000E+000	8	...........	-32768,00
	434	43,5	5,33887E-001	1,03926E-004	0,00000E+000	5,34003E-001	0,00000E+000	9	...........	-32768,00
	448	44,9	5,47886E-001	1,33297E-004	0,00000E+000	5,48005E-001	0,00000E+000	9	...........	-32768,00
	462	46,3	5,61882E-001	1,57127E-004	0,00000E+000	5,62006E-001	0,00000E+000	9	...........	-32768,00
	476	47,7	5,75868E-001	1,26785E-004	0,00000E+000	5,75994E-001	0,00000E+000	9	...........	-32768,00
	490	49,1	5,89892E-001	4,95097E-005	0,00000E+000	5,89996E-001	0,00000E+000	8	...........	-32768,00
	504	50,5	6,03904E-001	4,03964E-005	0,00000E+000	6,03997E-001	0,00000E+000	8	...........	-32768,00
	518	51,9	6,17901E-001	3,69917E-005	0,00000E+000	6,17998E-001	0,00000E+000	8	...........	-32768,00
	532	53,3	6,31908E-001	3,52104E-005	0,00000E+000	6,31999E-001	0,00000E+000	8	...........	-32768,00
	546	54,7	6,45905E-001	3,42095E-005	0,00000E+000	6,46000E-001	0,00000E+000	8	...........	-32768,00
	560	56,1	6,59910E-001	3,36188E-005	0,00000E+000	6,60001E-001	0,00000E+000	8	...........	-32768,00
	574	57,5	6,73925E-001	3,33347E-005	0,00000E+000	6,74002E-001	0,00000E+000	8	...........	-32768,00
	588	58,9	6,87922E-001	3,31975E-005	0,00000E+000	6,88003E-001	0,00000E+000	8	...........	-32768,00
	602	60,3	7,01928E-001	3,31789E-005	0,00000E+000	7,02004E-001	0,00000E+000	8	...........	-32768,00
	616	61,7	7,15924E-001	3,32669E-005	0,00000E+000	7,16006E-001	0,00000E+000	8	...........	-32768,00
	630	63,1	7,29923E-001	3,33142E-005	0,00000E+000	7,29994E-001	0,00000E+000	8	...........	-32768,00
	644	64,5	7,43960E-001	3,34660E-005	0,00000E+000	7,43995E-001	0,00000E+000	8	...........	-32768,00
	658	65,9	7,57955E-001	3,36171E-005	0,00000E+000	7,57996E-001	0,00000E+000	8	...........	-32768,00
	672	67,3	7,71950E-001	3,37579E-005	0,00000E+000	7,71998E-001	0,00000E+000	8	...........	-32768,00
	686	68,7	7,85964E-001	3,38939E-005	0,00000E+000	7,85999E-001	0,00000E+000	8	...........	-32768,00
	700	70,1	7,99964E-001	3,40577E-005	0,00000E+000	8,00000E-001	0,00000E+000	8	...........	-32768,00
	714	71,5	7,85964E-001	3,10841E-005	0,00000E+000	7,85999E-001	0,00000E+000	8	...........	-32768,00
	728	72,9	7,71949E-001	2,86621E-005	0,00000E+000	7,71998E-001	0,00000E+000	8	...........	-32768,00
	742	74,3	7,57953E-001	2,66092E-005	0,00000E+000	7,57996E-001	0,00000E+000	8	...........	-32768,00
	756	75,7	7,43952E-001	2,48183E-005	0,00000E+000	7,43995E-001	0,00000E+000	8	...........	-32768,00
	770	77,1	7,29919E-001	2,32366E-005	0,00000E+000	7,29994E-001	0,00000E+000	8	...........	-32768,00
	784	78,5	7,15928E-001	2,18001E-005	0,00000E+000	7,16006E-001	0,00000E+000	8	...........	-32768,00
	798	79,9	7,01925E-001	2,05075E-005	0,00000E+000	7,02004E-001	0,00000E+000	8	...........	-32768,00
	812	81,3	6,87921E-001	1,93161E-005	0,00000E+000	6,88003E-001	0,00000E+000	8	...........	-32768,00
	826	82,7	6,73924E-001	1,82133E-005	0,00000E+000	6,74002E-001	0,00000E+000	8	...........	-32768,00
	840	84,1	6,59898E-001	1,73857E-005	0,00000E+000	6,60001E-001	0,00000E+000	8	...........	-32768,00
	854	85,5	6,45914E-001	1,63865E-005	0,00000E+000	6,46000E-001	0,00000E+000	8	...........	-32768,00
	868	86,9	6,31911E-001	1,54500E-005	0,00000E+000	6,31999E-001	0,00000E+000	8	...........	-32768,00
	882	88,3	6,17898E-001	1,45491E-005	0,00000E+000	6,17998E-001	0,00000E+000	8	...........	-32768,00
	896	89,7	6,03903E-001	1,36869E-005	0,00000E+000	6,03997E-001	0,00000E+000	8	...........	-32768,00
	910	91,1	5,89895E-001	1,27476E-005	0,00000E+000	5,89996E-001	0,00000E+000	8	...........	-32768,00
	924	92,5	5,75854E-001	1,19447E-005	0,00000E+000	5,75994E-001	0,00000E+000	8	...........	-32768,00
	938	93,9	5,61874E-001	1,11479E-005	0,00000E+000	5,62006E-001	0,00000E+000	8	...........	-32768,00
	952	95,3	5,47877E-001	1,03587E-005	0,00000E+000	5,48005E-001	0,00000E+000	8	...........	-32768,00
	966	96,7	5,33886E-001	9,59247E-006	0,00000E+000	5,34003E-001	0,00000E+000	8	...........	-32768,00
	980	98,1	5,19887E-001	8,88903E-006	0,00000E+000	5,20002E-001	0,00000E+000	8	...........	-32768,00
	994	99,5	5,05863E-001	8,24938E-006	0,00000E+000	5,06001E-001	0,00000E+000	8	...........	-32768,00
	1008	100,9	4,91862E-001	7,62140E-006	0,00000E+000	4,92000E-001	0,00000E+000	7	...........	-32768,00
	1022	102,3	4,77865E-001	6,96458E-006	0,00000E+000	4,77999E-001	0,00000E+000	7	...........	-32768,00
	1036	103,7	4,63857E-001	6,23398E-006	0,00000E+000	4,63998E-001	0,00000E+000	7	...........	-32768,00
	1050	105,1	4,49858E-001	4,14208E-006	0,00000E+000	4,49997E-001	0,00000E+000	7	...........	-32768,00
	1064	106,5	4,35854E-001	-1,29930E-005	0,00000E+000	4,35996E-001	0,00000E+000	8	...........	-32768,00
	1078	107,9	4,21837E-001	-4,76171E-005	0,00000E+000	4,21995E-001	0,00000E+000	8	...........	-32768,00
	1092	109,3	4,07858E-001	-7,17001E-005	0,00000E+000	4,08006E-001	0,00000E+000	8	...........	-32768,00
	1106	110,7	3,93846E-001	-7,93240E-005	0,00000E+000	3,94005E-001	0,00000E+000	8	...........	-32768,00
	1120	112,1	3,79865E-001	-7,71070E-005	0,00000E+000	3,80004E-001	0,00000E+000	8	...........	-32768,00
	1134	113,5	3,65852E-001	-7,06476E-005	0,00000E+000	3,66003E-001	0,00000E+000	8	...........	-32768,00
	1148	114,9	3,51843E-001	-6,33569E-005	0,00000E+000	3,52001E-001	0,00000E+000	8	...........	-32768,00
	1162	116,3	3,37844E-001	-5,68854E-005	0,00000E+000	3,38000E-001	0,00000E+000	8	...........	-32768,00
	1176	117,7	3,23854E-001	-5,16816E-005	0,00000E+000	3,23999E-001	0,00000E+000	8	...........	-32768,00
	1190	119,1	3,09834E-001	-4,75347E-005	0,00000E+000	3,09998E-001	0,00000E+000	8	...........	-32768,00
	1204	120,5	2,95839E-001	-4,43021E-005	0,00000E+000	2,95997E-001	0,00000E+000	8	...........	-32768,00
	1218	121,9	2,81823E-001	-4,18069E-005	0,00000E+000	2,81996E-001	0,00000E+000	8	...........	-32768,00
	1232	123,3	2,67813E-001	-3,98121E-005	0,00000E+000	2,67995E-001	0,00000E+000	8	...........	-32768,00
	1246	124,7	2,53818E-001	-3,82665E-005	0,00000E+000	2,54006E-001	0,00000E+000	8	...........	-32768,00
	1260	126,1	2,39813E-001	-3,70021E-005	0,00000E+000	2,40005E-001	0,00000E+000	8	...........	-32768,00
	1274	127,5	2,25807E-001	-3,58743E-005	0,00000E+000	2,26004E-001	0,00000E+000	8	...........	-32768,00
	1288	128,9	2,11811E-001	-3,47276E-005	0,00000E+000	2,12003E-001	0,00000E+000	8	...........	-32768,00
	1302	130,3	1,97800E-001	-3,35201E-005	0,00000E+000	1,98002E-001	0,00000E+000	8	...........	-32768,00
	1316	131,7	1,83817E-001	-3,25376E-005	0,00000E+000	1,84000E-001	0,00000E+000	8	...........	-32768,00
	1330	133,1	1,69811E-001	-3,18169E-005	0,00000E+000	1,69999E-001	0,00000E+000	8	...........	-32768,00
	1344	134,5	1,55811E-001	-3,12085E-005	0,00000E+000	1,55998E-001	0,00000E+000	8	...........	-32768,00
	1358	135,9	1,41802E-001	-3,07568E-005	0,00000E+000	1,41997E-001	0,00000E+000	8	...........	-32768,00
	1372	137,3	1,27804E-001	-3,05287E-005	0,00000E+000	1,27996E-001	0,00000E+000	8	...........	-32768,00
	1386	138,7	1,13784E-001	-3,03408E-005	0,00000E+000	1,13995E-001	0,00000E+000	8	...........	-32768,00
	1400	140,1	9,97928E-002	-3,04942E-005	0,00000E+000	1,00006E-001	0,00000E+000	8	...........	-32768,00