File: HOPG_cv/3mM/AgNO3_HOPG_3mM_80mv_1_cv.DTA
EXPLAIN
TAG	CV
TITLE	LABEL	Cyclic Voltammetry	Test &Identifier
DATE	LABEL	30/4/2022	Date
TIME	LABEL	16:01:51	Time
NOTES	NOTES	2	&Notes...
	30/04/22 , 5mM  AgNO3

PSTAT	PSTAT	IFC1000-09004	Potentiostat
VINIT	POTEN	1,00000E-001	F	Initial &E (V)
VLIMIT1	POTEN	1,00000E-001	F	Scan Limit &1 (V)
VLIMIT2	POTEN	8,00000E-001	F	Scan Limit &2 (V)
VFINAL	POTEN	1,00000E-001	F	Final &E (V)
SCANRATE	QUANT	7,99998E+001	&Scan Rate (mV/s)
STEPSIZE	QUANT	1,00000E+000	St&ep Size (mV)
CYCLES	IQUANT	1	C&ycles (#)
IMODE	SELECTOR	0	I/E Range &Mode
IRANGE	QUANT	1,00000E-005	&Max Current (mA)
AREA	QUANT	1,00000E+000	Electrode &Area (cm^2)
ELECTRODETYPE	SELECTOR	0	Electrode Type
STRIPPING	TOGGLE	F	Used for Stripping
POLARITY	TOGGLE	F	Signal Polarity
CONDIT	TWOPARAM	F	1,50000E+001	0,00000E+000	Conditionin&g	Time(s)	E(V)
DELAY	TWOPARAM	F	3,00000E+001	0,00000E+000	Init. De&lay	Time(s)	Stab.(mV/s)
EQDELAY	QUANT	1,00000E+001	Equil. &Time (s)
IRCOMP	SELECTOR	0	IRCom&p
PFCOR	QUANT	5,00000E+001	PF Corr. (ohm)
SAMPLINGMODE	SELECTOR	1	Sampling &Mode
EOC	QUANT	0	Open Circuit (V)
PSTATMODEL	IQUANT	48	Pstat Model
PSTATSECTION	LABEL	IFC1000-09004	Pstat Section
PSTATSERIALNO	LABEL	09004	Pstat Serial Number
CTRLMODE	IQUANT	1	Control Mode
ELECTROMETER	IQUANT	0	RE=0 or CS=1
IESTAB	IQUANT	2	I/E Stability
CASPEED	IQUANT	4	Control Amp Speed
CONVENTION	IQUANT	1	Current Convention
ICHRANGE	IQUANT	2	Ich Range
ICHRANGEMODE	TOGGLE	F	Ich Auto Range
ICHOFFSETENABLE	TOGGLE	F	Ich Offset Enable
ICHOFFSET	QUANT	0	Ich Offset (V)
ICHFILTER	IQUANT	3	Ich Filter
VCHRANGE	IQUANT	2	Vch Range
VCHRANGEMODE	TOGGLE	F	Vch Auto Range
VCHOFFSETENABLE	TOGGLE	F	Vch Offset Enable
VCHOFFSET	QUANT	0	Vch Offset (V)
VCHFILTER	IQUANT	3	Vch Filter
IERANGELOWERLIMIT	IQUANT	4	I/E Range Lower Limit
IERANGEMODE	TOGGLE	T	I/E AutoRange
IERANGE	IQUANT	5	I/E Range
ACHSELECT	IQUANT	0	Ach Select
ACHRANGE	IQUANT	2	Ach Range
ACHOFFSETENABLE	TOGGLE	F	Ach Offset Enable
ACHOFFSET	QUANT	0	Ach Offset (V)
ACHFILTER	IQUANT	1	Ach Filter
CABLEID	IQUANT	14	Cable ID
DCCALDATE	LABEL	3/18/2022	DC Calibration Date
ACCALDATE	LABEL	3/10/2016	AC Calibration Date
FRAMEWORKVERSION	QUANT	7,05	Framework Version
INSTRUMENTVERSION	LABEL	4.21	Instrument Version
CURVE1	TABLE
	Pt	T	Vf	Im	Vu	Sig	Ach	IERange	Over	Temp
	#	s	V vs. Ref.	A	V	V	V	#	bits	deg C
	0	0,0125	9,97922E-002	-3,69820E-005	0,00000E+000	1,00006E-001	0,00000E+000	8	...........	-32768,00
	15	0,2	1,14787E-001	-3,41114E-005	0,00000E+000	1,14995E-001	0,00000E+000	8	...........	-32768,00
	30	0,3875	1,29806E-001	-3,25749E-005	0,00000E+000	1,29996E-001	0,00000E+000	8	...........	-32768,00
	45	0,575	1,44802E-001	-3,13464E-005	0,00000E+000	1,44997E-001	0,00000E+000	8	...........	-32768,00
	60	0,7625	1,59798E-001	-3,03392E-005	0,00000E+000	1,59999E-001	0,00000E+000	8	...........	-32768,00
	75	0,95	1,74799E-001	-2,94731E-005	0,00000E+000	1,75000E-001	0,00000E+000	8	...........	-32768,00
	90	1,1375	1,89805E-001	-2,87167E-005	0,00000E+000	1,90001E-001	0,00000E+000	8	...........	-32768,00
	105	1,325	2,04793E-001	-2,79724E-005	0,00000E+000	2,05002E-001	0,00000E+000	8	...........	-32768,00
	120	1,5125	2,19809E-001	-2,73271E-005	0,00000E+000	2,20003E-001	0,00000E+000	8	...........	-32768,00
	135	1,7	2,34834E-001	-2,67483E-005	0,00000E+000	2,35005E-001	0,00000E+000	8	...........	-32768,00
	150	1,8875	2,49823E-001	-2,61180E-005	0,00000E+000	2,50006E-001	0,00000E+000	8	...........	-32768,00
	165	2,075	2,64821E-001	-2,54592E-005	0,00000E+000	2,64994E-001	0,00000E+000	8	...........	-32768,00
	180	2,2625	2,79828E-001	-2,48182E-005	0,00000E+000	2,79996E-001	0,00000E+000	8	...........	-32768,00
	195	2,45	2,94818E-001	-2,40742E-005	0,00000E+000	2,94997E-001	0,00000E+000	8	...........	-32768,00
	210	2,6375	3,09834E-001	-2,31568E-005	0,00000E+000	3,09998E-001	0,00000E+000	8	...........	-32768,00
	225	2,825	3,24844E-001	-2,19374E-005	0,00000E+000	3,24999E-001	0,00000E+000	8	...........	-32768,00
	240	3,0125	3,39841E-001	-2,02356E-005	0,00000E+000	3,40000E-001	0,00000E+000	8	...........	-32768,00
	255	3,2	3,54839E-001	-1,70420E-005	0,00000E+000	3,55002E-001	0,00000E+000	8	...........	-32768,00
	270	3,3875	3,69848E-001	-1,35238E-005	0,00000E+000	3,70003E-001	0,00000E+000	8	...........	-32768,00
	285	3,575	3,84859E-001	-8,76162E-006	0,00000E+000	3,85004E-001	0,00000E+000	8	...........	-32768,00
	300	3,7625	3,99862E-001	-2,32879E-006	0,00000E+000	4,00005E-001	0,00000E+000	8	...........	-32768,00
	315	3,95	4,14839E-001	5,98839E-006	0,00000E+000	4,14994E-001	0,00000E+000	8	...........	-32768,00
	330	4,1375	4,29853E-001	1,60078E-005	0,00000E+000	4,29995E-001	0,00000E+000	8	...........	-32768,00
	345	4,325	4,44836E-001	2,78238E-005	0,00000E+000	4,44996E-001	0,00000E+000	8	...........	-32768,00
	360	4,5125	4,59849E-001	4,29968E-005	0,00000E+000	4,59998E-001	0,00000E+000	8	...........	-32768,00
	375	4,7	4,74873E-001	6,40840E-005	0,00000E+000	4,74999E-001	0,00000E+000	8	...........	-32768,00
	390	4,8875	4,89865E-001	9,27868E-005	0,00000E+000	4,90000E-001	0,00000E+000	9	...........	-32768,00
	405	5,075	5,04863E-001	1,30155E-004	0,00000E+000	5,05001E-001	0,00000E+000	9	...........	-32768,00
	420	5,2625	5,19887E-001	1,76335E-004	0,00000E+000	5,20002E-001	0,00000E+000	9	...........	-32768,00
	435	5,45	5,34889E-001	2,31243E-004	0,00000E+000	5,35004E-001	0,00000E+000	9	...........	-32768,00
	450	5,6375	5,49877E-001	2,93831E-004	0,00000E+000	5,50005E-001	0,00000E+000	9	...........	-32768,00
	465	5,825	5,64899E-001	3,63238E-004	0,00000E+000	5,65006E-001	0,00000E+000	9	...........	-32768,00
	480	6,0125	5,79900E-001	4,38533E-004	0,00000E+000	5,79995E-001	0,00000E+000	9	...........	-32768,00
	495	6,2	5,94894E-001	5,18709E-004	0,00000E+000	5,94996E-001	0,00000E+000	9	...........	-32768,00
	510	6,3875	6,09881E-001	5,98377E-004	0,00000E+000	6,09997E-001	0,00000E+000	9	...........	-32768,00
	525	6,575	6,24886E-001	6,61308E-004	0,00000E+000	6,24998E-001	0,00000E+000	9	...........	-32768,00
	540	6,7625	6,39908E-001	6,78122E-004	0,00000E+000	6,40000E-001	0,00000E+000	9	...........	-32768,00
	555	6,95	6,54931E-001	6,13788E-004	0,00000E+000	6,55001E-001	0,00000E+000	9	...........	-32768,00
	570	7,1375	6,69951E-001	2,83614E-004	0,00000E+000	6,70002E-001	0,00000E+000	9	...........	-32768,00
	585	7,325	6,84944E-001	1,41904E-004	0,00000E+000	6,85003E-001	0,00000E+000	9	...........	-32768,00
	600	7,5125	6,99941E-001	1,13019E-004	0,00000E+000	7,00004E-001	0,00000E+000	9	...........	-32768,00
	615	7,7	7,14925E-001	9,82966E-005	0,00000E+000	7,15006E-001	0,00000E+000	9	...........	-32768,00
	630	7,8875	7,29928E-001	8,94083E-005	0,00000E+000	7,29994E-001	0,00000E+000	9	...........	-32768,00
	645	8,075	7,44938E-001	8,33468E-005	0,00000E+000	7,44995E-001	0,00000E+000	9	...........	-32768,00
	660	8,2625	7,59936E-001	7,87559E-005	0,00000E+000	7,59997E-001	0,00000E+000	8	...........	-32768,00
	675	8,45	7,74954E-001	7,56469E-005	0,00000E+000	7,74998E-001	0,00000E+000	8	...........	-32768,00
	690	8,6375	7,89970E-001	7,31042E-005	0,00000E+000	7,89999E-001	0,00000E+000	8	...........	-32768,00
	705	8,825	7,94971E-001	6,77073E-005	0,00000E+000	7,94999E-001	0,00000E+000	8	...........	-32768,00
	720	9,0125	7,79958E-001	5,79848E-005	0,00000E+000	7,79998E-001	0,00000E+000	8	...........	-32768,00
	735	9,2	7,64935E-001	5,08610E-005	0,00000E+000	7,64997E-001	0,00000E+000	8	...........	-32768,00
	750	9,3875	7,49943E-001	4,53705E-005	0,00000E+000	7,49996E-001	0,00000E+000	8	...........	-32768,00
	765	9,575	7,34948E-001	4,08514E-005	0,00000E+000	7,34995E-001	0,00000E+000	8	...........	-32768,00
	780	9,7625	7,19952E-001	3,67094E-005	0,00000E+000	7,20006E-001	0,00000E+000	8	...........	-32768,00
	795	9,95	7,04925E-001	3,34190E-005	0,00000E+000	7,05005E-001	0,00000E+000	8	...........	-32768,00
	810	10,1375	6,89933E-001	3,00810E-005	0,00000E+000	6,90004E-001	0,00000E+000	8	...........	-32768,00
	825	10,325	6,74917E-001	2,72544E-005	0,00000E+000	6,75002E-001	0,00000E+000	8	...........	-32768,00
	840	10,5125	6,59910E-001	2,46723E-005	0,00000E+000	6,60001E-001	0,00000E+000	8	...........	-32768,00
	855	10,7	6,44909E-001	2,23810E-005	0,00000E+000	6,45000E-001	0,00000E+000	8	...........	-32768,00
	870	10,8875	6,29914E-001	2,02616E-005	0,00000E+000	6,29999E-001	0,00000E+000	8	...........	-32768,00
	885	11,075	6,14874E-001	1,82584E-005	0,00000E+000	6,14998E-001	0,00000E+000	8	...........	-32768,00
	900	11,2625	5,99866E-001	1,63461E-005	0,00000E+000	5,99996E-001	0,00000E+000	8	...........	-32768,00
	915	11,45	5,84883E-001	1,44899E-005	0,00000E+000	5,84995E-001	0,00000E+000	8	...........	-32768,00
	930	11,6375	5,69875E-001	1,26693E-005	0,00000E+000	5,69994E-001	0,00000E+000	8	...........	-32768,00
	945	11,825	5,54883E-001	1,08839E-005	0,00000E+000	5,55005E-001	0,00000E+000	8	...........	-32768,00
	960	12,0125	5,39894E-001	9,30325E-006	0,00000E+000	5,40004E-001	0,00000E+000	8	...........	-32768,00
	975	12,2	5,24850E-001	7,95317E-006	0,00000E+000	5,25003E-001	0,00000E+000	8	...........	-32768,00
	990	12,3875	5,09861E-001	6,72828E-006	0,00000E+000	5,10002E-001	0,00000E+000	8	...........	-32768,00
	1005	12,575	4,94852E-001	5,47802E-006	0,00000E+000	4,95000E-001	0,00000E+000	8	...........	-32768,00
	1020	12,7625	4,79853E-001	4,11424E-006	0,00000E+000	4,79999E-001	0,00000E+000	8	...........	-32768,00
	1035	12,95	4,64865E-001	2,50189E-006	0,00000E+000	4,64998E-001	0,00000E+000	8	...........	-32768,00
	1050	13,1375	4,49866E-001	-8,67309E-007	0,00000E+000	4,49997E-001	0,00000E+000	8	...........	-32768,00
	1065	13,325	4,34835E-001	-2,08690E-005	0,00000E+000	4,34996E-001	0,00000E+000	8	...........	-32768,00
	1080	13,5125	4,19848E-001	-8,19425E-005	0,00000E+000	4,19994E-001	0,00000E+000	8	...........	-32768,00
	1095	13,7	4,04847E-001	-1,62372E-004	0,00000E+000	4,05006E-001	0,00000E+000	9	...........	-32768,00
	1110	13,8875	3,89857E-001	-2,24192E-004	0,00000E+000	3,90004E-001	0,00000E+000	9	...........	-32768,00
	1125	14,075	3,74862E-001	-2,56409E-004	0,00000E+000	3,75003E-001	0,00000E+000	9	...........	-32768,00
	1140	14,2625	3,59860E-001	-2,62847E-004	0,00000E+000	3,60002E-001	0,00000E+000	9	...........	-32768,00
	1155	14,45	3,44833E-001	-2,51599E-004	0,00000E+000	3,45001E-001	0,00000E+000	9	...........	-32768,00
	1170	14,6375	3,29825E-001	-2,31580E-004	0,00000E+000	3,30000E-001	0,00000E+000	9	...........	-32768,00
	1185	14,825	3,14831E-001	-2,09515E-004	0,00000E+000	3,14998E-001	0,00000E+000	9	...........	-32768,00
	1200	15,0125	2,99812E-001	-1,89159E-004	0,00000E+000	2,99997E-001	0,00000E+000	9	...........	-32768,00
	1215	15,2	2,84820E-001	-1,71610E-004	0,00000E+000	2,84996E-001	0,00000E+000	9	...........	-32768,00
	1230	15,3875	2,69830E-001	-1,57024E-004	0,00000E+000	2,69995E-001	0,00000E+000	9	...........	-32768,00
	1245	15,575	2,54820E-001	-1,44911E-004	0,00000E+000	2,55006E-001	0,00000E+000	9	...........	-32768,00
	1260	15,7625	2,39811E-001	-1,34817E-004	0,00000E+000	2,40005E-001	0,00000E+000	9	...........	-32768,00
	1275	15,95	2,24808E-001	-1,26359E-004	0,00000E+000	2,25004E-001	0,00000E+000	9	...........	-32768,00
	1290	16,1375	2,09825E-001	-1,19371E-004	0,00000E+000	2,10003E-001	0,00000E+000	9	...........	-32768,00
	1305	16,325	1,94807E-001	-1,13662E-004	0,00000E+000	1,95001E-001	0,00000E+000	9	...........	-32768,00
	1320	16,5125	1,79830E-001	-1,08911E-004	0,00000E+000	1,80000E-001	0,00000E+000	9	...........	-32768,00
	1335	16,7	1,64795E-001	-1,04923E-004	0,00000E+000	1,64999E-001	0,00000E+000	9	...........	-32768,00
	1350	16,8875	1,49794E-001	-1,01386E-004	0,00000E+000	1,49998E-001	0,00000E+000	9	...........	-32768,00
	1365	17,075	1,34797E-001	-9,83609E-005	0,00000E+000	1,34997E-001	0,00000E+000	9	...........	-32768,00
	1380	17,2625	1,19799E-001	-9,52845E-005	0,00000E+000	1,19995E-001	0,00000E+000	9	...........	-32768,00
	1395	17,45	1,04795E-001	-9,24712E-005	0,00000E+000	1,04994E-001	0,00000E+000	9	...........	-32768,00
	1400	17,5125	9,97908E-002	-9,15461E-005	0,00000E+000	1,00006E-001	0,00000E+000	9	...........	-32768,00