File: HOPG_cv/3mM/AgNO3_HOPG_3mM_20mv_1_cv.DTA
EXPLAIN
TAG	CV
TITLE	LABEL	Cyclic Voltammetry	Test &Identifier
DATE	LABEL	30/4/2022	Date
TIME	LABEL	16:17:24	Time
NOTES	NOTES	2	&Notes...
	30/04/22 , 5mM  AgNO3

PSTAT	PSTAT	IFC1000-09004	Potentiostat
VINIT	POTEN	1,00000E-001	F	Initial &E (V)
VLIMIT1	POTEN	1,00000E-001	F	Scan Limit &1 (V)
VLIMIT2	POTEN	8,00000E-001	F	Scan Limit &2 (V)
VFINAL	POTEN	1,00000E-001	F	Final &E (V)
SCANRATE	QUANT	2,00000E+001	&Scan Rate (mV/s)
STEPSIZE	QUANT	1,00000E+000	St&ep Size (mV)
CYCLES	IQUANT	1	C&ycles (#)
IMODE	SELECTOR	0	I/E Range &Mode
IRANGE	QUANT	1,00000E-005	&Max Current (mA)
AREA	QUANT	1,00000E+000	Electrode &Area (cm^2)
ELECTRODETYPE	SELECTOR	0	Electrode Type
STRIPPING	TOGGLE	F	Used for Stripping
POLARITY	TOGGLE	F	Signal Polarity
CONDIT	TWOPARAM	F	1,50000E+001	0,00000E+000	Conditionin&g	Time(s)	E(V)
DELAY	TWOPARAM	F	3,00000E+001	0,00000E+000	Init. De&lay	Time(s)	Stab.(mV/s)
EQDELAY	QUANT	1,00000E+001	Equil. &Time (s)
IRCOMP	SELECTOR	0	IRCom&p
PFCOR	QUANT	5,00000E+001	PF Corr. (ohm)
SAMPLINGMODE	SELECTOR	1	Sampling &Mode
EOC	QUANT	0	Open Circuit (V)
PSTATMODEL	IQUANT	48	Pstat Model
PSTATSECTION	LABEL	IFC1000-09004	Pstat Section
PSTATSERIALNO	LABEL	09004	Pstat Serial Number
CTRLMODE	IQUANT	1	Control Mode
ELECTROMETER	IQUANT	0	RE=0 or CS=1
IESTAB	IQUANT	2	I/E Stability
CASPEED	IQUANT	4	Control Amp Speed
CONVENTION	IQUANT	1	Current Convention
ICHRANGE	IQUANT	2	Ich Range
ICHRANGEMODE	TOGGLE	F	Ich Auto Range
ICHOFFSETENABLE	TOGGLE	F	Ich Offset Enable
ICHOFFSET	QUANT	0	Ich Offset (V)
ICHFILTER	IQUANT	3	Ich Filter
VCHRANGE	IQUANT	2	Vch Range
VCHRANGEMODE	TOGGLE	F	Vch Auto Range
VCHOFFSETENABLE	TOGGLE	F	Vch Offset Enable
VCHOFFSET	QUANT	0	Vch Offset (V)
VCHFILTER	IQUANT	3	Vch Filter
IERANGELOWERLIMIT	IQUANT	4	I/E Range Lower Limit
IERANGEMODE	TOGGLE	T	I/E AutoRange
IERANGE	IQUANT	5	I/E Range
ACHSELECT	IQUANT	0	Ach Select
ACHRANGE	IQUANT	2	Ach Range
ACHOFFSETENABLE	TOGGLE	F	Ach Offset Enable
ACHOFFSET	QUANT	0	Ach Offset (V)
ACHFILTER	IQUANT	1	Ach Filter
CABLEID	IQUANT	14	Cable ID
DCCALDATE	LABEL	3/18/2022	DC Calibration Date
ACCALDATE	LABEL	3/10/2016	AC Calibration Date
FRAMEWORKVERSION	QUANT	7,05	Framework Version
INSTRUMENTVERSION	LABEL	4.21	Instrument Version
CURVE1	TABLE
	Pt	T	Vf	Im	Vu	Sig	Ach	IERange	Over	Temp
	#	s	V vs. Ref.	A	V	V	V	#	bits	deg C
	0	0,05	9,98240E-002	-1,09478E-005	0,00000E+000	1,00006E-001	0,00000E+000	7	....ih..i..	-32768,00
	15	0,8	1,14769E-001	-2,89518E-005	0,00000E+000	1,14995E-001	0,00000E+000	8	...........	-32768,00
	30	1,55	1,29811E-001	-2,73120E-005	0,00000E+000	1,29996E-001	0,00000E+000	8	...........	-32768,00
	45	2,3	1,44804E-001	-2,58897E-005	0,00000E+000	1,44997E-001	0,00000E+000	8	...........	-32768,00
	60	3,05	1,59802E-001	-2,47053E-005	0,00000E+000	1,59999E-001	0,00000E+000	8	...........	-32768,00
	75	3,8	1,74802E-001	-2,36637E-005	0,00000E+000	1,75000E-001	0,00000E+000	8	...........	-32768,00
	90	4,55	1,89804E-001	-2,27436E-005	0,00000E+000	1,90001E-001	0,00000E+000	8	...........	-32768,00
	105	5,3	2,04800E-001	-2,18632E-005	0,00000E+000	2,05002E-001	0,00000E+000	8	...........	-32768,00
	120	6,05	2,19818E-001	-2,10700E-005	0,00000E+000	2,20003E-001	0,00000E+000	8	...........	-32768,00
	135	6,8	2,34825E-001	-2,03029E-005	0,00000E+000	2,35005E-001	0,00000E+000	8	...........	-32768,00
	150	7,55	2,49810E-001	-1,95661E-005	0,00000E+000	2,50006E-001	0,00000E+000	8	...........	-32768,00
	165	8,3	2,64818E-001	-1,88627E-005	0,00000E+000	2,64994E-001	0,00000E+000	8	...........	-32768,00
	180	9,05	2,79811E-001	-1,81315E-005	0,00000E+000	2,79996E-001	0,00000E+000	8	...........	-32768,00
	195	9,8	2,94809E-001	-1,73785E-005	0,00000E+000	2,94997E-001	0,00000E+000	8	...........	-32768,00
	210	10,55	3,09832E-001	-1,65531E-005	0,00000E+000	3,09998E-001	0,00000E+000	8	...........	-32768,00
	225	11,3	3,24830E-001	-1,55260E-005	0,00000E+000	3,24999E-001	0,00000E+000	8	...........	-32768,00
	240	12,05	3,39830E-001	-1,39000E-005	0,00000E+000	3,40000E-001	0,00000E+000	8	...........	-32768,00
	255	12,8	3,54834E-001	-1,21791E-005	0,00000E+000	3,55002E-001	0,00000E+000	8	...........	-32768,00
	270	13,55	3,69835E-001	-1,00278E-005	0,00000E+000	3,70003E-001	0,00000E+000	8	...........	-32768,00
	285	14,3	3,84872E-001	-7,06013E-006	0,00000E+000	3,85004E-001	0,00000E+000	7	...........	-32768,00
	300	15,05	3,99858E-001	-2,89614E-006	0,00000E+000	4,00005E-001	0,00000E+000	7	...........	-32768,00
	315	15,8	4,14826E-001	2,24837E-006	0,00000E+000	4,14994E-001	0,00000E+000	7	...........	-32768,00
	330	16,55	4,29841E-001	7,99064E-006	0,00000E+000	4,29995E-001	0,00000E+000	7	...........	-32768,00
	345	17,3	4,44837E-001	1,42702E-005	0,00000E+000	4,44996E-001	0,00000E+000	8	...........	-32768,00
	360	18,05	4,59840E-001	2,23808E-005	0,00000E+000	4,59998E-001	0,00000E+000	8	...........	-32768,00
	375	18,8	4,74870E-001	3,43883E-005	0,00000E+000	4,74999E-001	0,00000E+000	8	...........	-32768,00
	390	19,55	4,89859E-001	5,17083E-005	0,00000E+000	4,90000E-001	0,00000E+000	8	...........	-32768,00
	405	20,3	5,04869E-001	7,48019E-005	0,00000E+000	5,05001E-001	0,00000E+000	8	...........	-32768,00
	420	21,05	5,19884E-001	1,04651E-004	0,00000E+000	5,20002E-001	0,00000E+000	9	...........	-32768,00
	435	21,8	5,34882E-001	1,41749E-004	0,00000E+000	5,35004E-001	0,00000E+000	9	...........	-32768,00
	450	22,55	5,49893E-001	1,85827E-004	0,00000E+000	5,50005E-001	0,00000E+000	9	...........	-32768,00
	465	23,3	5,64912E-001	2,32007E-004	0,00000E+000	5,65006E-001	0,00000E+000	9	...........	-32768,00
	480	24,05	5,79892E-001	2,67433E-004	0,00000E+000	5,79995E-001	0,00000E+000	9	...........	-32768,00
	495	24,8	5,94887E-001	2,55295E-004	0,00000E+000	5,94996E-001	0,00000E+000	9	...........	-32768,00
	510	25,55	6,09893E-001	1,17912E-004	0,00000E+000	6,09997E-001	0,00000E+000	9	...........	-32768,00
	525	26,3	6,24883E-001	6,30670E-005	0,00000E+000	6,24998E-001	0,00000E+000	8	...........	-32768,00
	540	27,05	6,39898E-001	5,47948E-005	0,00000E+000	6,40000E-001	0,00000E+000	8	...........	-32768,00
	555	27,8	6,54909E-001	5,05843E-005	0,00000E+000	6,55001E-001	0,00000E+000	8	...........	-32768,00
	570	28,55	6,69923E-001	4,82916E-005	0,00000E+000	6,70002E-001	0,00000E+000	8	...........	-32768,00
	585	29,3	6,84928E-001	4,69429E-005	0,00000E+000	6,85003E-001	0,00000E+000	8	...........	-32768,00
	600	30,05	6,99937E-001	4,61547E-005	0,00000E+000	7,00004E-001	0,00000E+000	8	...........	-32768,00
	615	30,8	7,14922E-001	4,57059E-005	0,00000E+000	7,15006E-001	0,00000E+000	8	...........	-32768,00
	630	31,55	7,29926E-001	4,54880E-005	0,00000E+000	7,29994E-001	0,00000E+000	8	...........	-32768,00
	645	32,3	7,44945E-001	4,53811E-005	0,00000E+000	7,44995E-001	0,00000E+000	8	...........	-32768,00
	660	33,05	7,59949E-001	4,55101E-005	0,00000E+000	7,59997E-001	0,00000E+000	8	...........	-32768,00
	675	33,8	7,74958E-001	4,57002E-005	0,00000E+000	7,74998E-001	0,00000E+000	8	...........	-32768,00
	690	34,55	7,89960E-001	4,58932E-005	0,00000E+000	7,89999E-001	0,00000E+000	8	...........	-32768,00
	705	35,3	7,94980E-001	4,44140E-005	0,00000E+000	7,94999E-001	0,00000E+000	8	...........	-32768,00
	720	36,05	7,79961E-001	4,01069E-005	0,00000E+000	7,79998E-001	0,00000E+000	8	...........	-32768,00
	735	36,8	7,64939E-001	3,65899E-005	0,00000E+000	7,64997E-001	0,00000E+000	8	...........	-32768,00
	750	37,55	7,49942E-001	3,36531E-005	0,00000E+000	7,49996E-001	0,00000E+000	8	...........	-32768,00
	765	38,3	7,34948E-001	3,09363E-005	0,00000E+000	7,34995E-001	0,00000E+000	8	...........	-32768,00
	780	39,05	7,19951E-001	2,86234E-005	0,00000E+000	7,20006E-001	0,00000E+000	8	...........	-32768,00
	795	39,8	7,04919E-001	2,65172E-005	0,00000E+000	7,05005E-001	0,00000E+000	8	...........	-32768,00
	810	40,55	6,89923E-001	2,45936E-005	0,00000E+000	6,90004E-001	0,00000E+000	8	...........	-32768,00
	825	41,3	6,74917E-001	2,28444E-005	0,00000E+000	6,75002E-001	0,00000E+000	8	...........	-32768,00
	840	42,05	6,59905E-001	2,12077E-005	0,00000E+000	6,60001E-001	0,00000E+000	8	...........	-32768,00
	855	42,8	6,44912E-001	1,96764E-005	0,00000E+000	6,45000E-001	0,00000E+000	8	...........	-32768,00
	870	43,55	6,29912E-001	1,82438E-005	0,00000E+000	6,29999E-001	0,00000E+000	8	...........	-32768,00
	885	44,3	6,14881E-001	1,68742E-005	0,00000E+000	6,14998E-001	0,00000E+000	8	...........	-32768,00
	900	45,05	5,99887E-001	1,55635E-005	0,00000E+000	5,99996E-001	0,00000E+000	8	...........	-32768,00
	915	45,8	5,84886E-001	1,43027E-005	0,00000E+000	5,84995E-001	0,00000E+000	8	...........	-32768,00
	930	46,55	5,69864E-001	1,30578E-005	0,00000E+000	5,69994E-001	0,00000E+000	8	...........	-32768,00
	945	47,3	5,54895E-001	1,18389E-005	0,00000E+000	5,55005E-001	0,00000E+000	8	...........	-32768,00
	960	48,05	5,39895E-001	1,06389E-005	0,00000E+000	5,40004E-001	0,00000E+000	8	...........	-32768,00
	975	48,8	5,24865E-001	9,51724E-006	0,00000E+000	5,25003E-001	0,00000E+000	8	...........	-32768,00
	990	49,55	5,09857E-001	8,50821E-006	0,00000E+000	5,10002E-001	0,00000E+000	8	...........	-32768,00
	1005	50,3	4,94844E-001	7,54533E-006	0,00000E+000	4,95000E-001	0,00000E+000	7	...........	-32768,00
	1020	51,05	4,79861E-001	6,55940E-006	0,00000E+000	4,79999E-001	0,00000E+000	7	...........	-32768,00
	1035	51,8	4,64853E-001	5,47388E-006	0,00000E+000	4,64998E-001	0,00000E+000	7	...........	-32768,00
	1050	52,55	4,49845E-001	3,24950E-006	0,00000E+000	4,49997E-001	0,00000E+000	7	...........	-32768,00
	1065	53,3	4,34847E-001	-9,63718E-006	0,00000E+000	4,34996E-001	0,00000E+000	7	...........	-32768,00
	1080	54,05	4,19839E-001	-4,47998E-005	0,00000E+000	4,19994E-001	0,00000E+000	8	...........	-32768,00
	1095	54,8	4,04856E-001	-8,51289E-005	0,00000E+000	4,05006E-001	0,00000E+000	8	...........	-32768,00
	1110	55,55	3,89852E-001	-1,09756E-004	0,00000E+000	3,90004E-001	0,00000E+000	9	...........	-32768,00
	1125	56,3	3,74854E-001	-1,15829E-004	0,00000E+000	3,75003E-001	0,00000E+000	9	...........	-32768,00
	1140	57,05	3,59851E-001	-1,10376E-004	0,00000E+000	3,60002E-001	0,00000E+000	9	...........	-32768,00
	1155	57,8	3,44828E-001	-1,00460E-004	0,00000E+000	3,45001E-001	0,00000E+000	9	...........	-32768,00
	1170	58,55	3,29831E-001	-9,01309E-005	0,00000E+000	3,30000E-001	0,00000E+000	9	...........	-32768,00
	1185	59,3	3,14823E-001	-8,11339E-005	0,00000E+000	3,14998E-001	0,00000E+000	9	...........	-32768,00
	1200	60,05	2,99824E-001	-7,37645E-005	0,00000E+000	2,99997E-001	0,00000E+000	8	...........	-32768,00
	1215	60,8	2,84830E-001	-6,77673E-005	0,00000E+000	2,84996E-001	0,00000E+000	8	...........	-32768,00
	1230	61,55	2,69834E-001	-6,28813E-005	0,00000E+000	2,69995E-001	0,00000E+000	8	...........	-32768,00
	1245	62,3	2,54817E-001	-5,90360E-005	0,00000E+000	2,55006E-001	0,00000E+000	8	...........	-32768,00
	1260	63,05	2,39823E-001	-5,60325E-005	0,00000E+000	2,40005E-001	0,00000E+000	8	...........	-32768,00
	1275	63,8	2,24814E-001	-5,36768E-005	0,00000E+000	2,25004E-001	0,00000E+000	8	...........	-32768,00
	1290	64,55	2,09814E-001	-5,15776E-005	0,00000E+000	2,10003E-001	0,00000E+000	8	...........	-32768,00
	1305	65,3	1,94813E-001	-4,95597E-005	0,00000E+000	1,95001E-001	0,00000E+000	8	...........	-32768,00
	1320	66,05	1,79828E-001	-4,77241E-005	0,00000E+000	1,80000E-001	0,00000E+000	8	...........	-32768,00
	1335	66,8	1,64805E-001	-4,60893E-005	0,00000E+000	1,64999E-001	0,00000E+000	8	...........	-32768,00
	1350	67,55	1,49788E-001	-4,47842E-005	0,00000E+000	1,49998E-001	0,00000E+000	8	...........	-32768,00
	1365	68,3	1,34800E-001	-4,38035E-005	0,00000E+000	1,34997E-001	0,00000E+000	8	...........	-32768,00
	1380	69,05	1,19799E-001	-4,30688E-005	0,00000E+000	1,19995E-001	0,00000E+000	8	...........	-32768,00
	1395	69,8	1,04784E-001	-4,26207E-005	0,00000E+000	1,04994E-001	0,00000E+000	8	...........	-32768,00
	1400	70,05	9,97877E-002	-4,25303E-005	0,00000E+000	1,00006E-001	0,00000E+000	8	...........	-32768,00