File: HOPG_cv/5mM/AgNO3_HOPG_5mM_10mv_1_cv.DTA
EXPLAIN
TAG	CV
TITLE	LABEL	Cyclic Voltammetry	Test &Identifier
DATE	LABEL	30/4/2022	Date
TIME	LABEL	14:27:46	Time
NOTES	NOTES	2	&Notes...
	30/04/22 , 5mM  AgNO3

PSTAT	PSTAT	IFC1000-09004	Potentiostat
VINIT	POTEN	1,00000E-001	F	Initial &E (V)
VLIMIT1	POTEN	1,00000E-001	F	Scan Limit &1 (V)
VLIMIT2	POTEN	8,00000E-001	F	Scan Limit &2 (V)
VFINAL	POTEN	1,00000E-001	F	Final &E (V)
SCANRATE	QUANT	9,99998E+000	&Scan Rate (mV/s)
STEPSIZE	QUANT	1,00000E+000	St&ep Size (mV)
CYCLES	IQUANT	1	C&ycles (#)
IMODE	SELECTOR	0	I/E Range &Mode
IRANGE	QUANT	1,00000E-005	&Max Current (mA)
AREA	QUANT	1,00000E+000	Electrode &Area (cm^2)
ELECTRODETYPE	SELECTOR	0	Electrode Type
STRIPPING	TOGGLE	F	Used for Stripping
POLARITY	TOGGLE	F	Signal Polarity
CONDIT	TWOPARAM	F	1,50000E+001	0,00000E+000	Conditionin&g	Time(s)	E(V)
DELAY	TWOPARAM	F	3,00000E+001	0,00000E+000	Init. De&lay	Time(s)	Stab.(mV/s)
EQDELAY	QUANT	1,00000E+001	Equil. &Time (s)
IRCOMP	SELECTOR	0	IRCom&p
PFCOR	QUANT	5,00000E+001	PF Corr. (ohm)
SAMPLINGMODE	SELECTOR	1	Sampling &Mode
EOC	QUANT	0	Open Circuit (V)
PSTATMODEL	IQUANT	48	Pstat Model
PSTATSECTION	LABEL	IFC1000-09004	Pstat Section
PSTATSERIALNO	LABEL	09004	Pstat Serial Number
CTRLMODE	IQUANT	1	Control Mode
ELECTROMETER	IQUANT	0	RE=0 or CS=1
IESTAB	IQUANT	2	I/E Stability
CASPEED	IQUANT	4	Control Amp Speed
CONVENTION	IQUANT	1	Current Convention
ICHRANGE	IQUANT	2	Ich Range
ICHRANGEMODE	TOGGLE	F	Ich Auto Range
ICHOFFSETENABLE	TOGGLE	F	Ich Offset Enable
ICHOFFSET	QUANT	0	Ich Offset (V)
ICHFILTER	IQUANT	3	Ich Filter
VCHRANGE	IQUANT	2	Vch Range
VCHRANGEMODE	TOGGLE	F	Vch Auto Range
VCHOFFSETENABLE	TOGGLE	F	Vch Offset Enable
VCHOFFSET	QUANT	0	Vch Offset (V)
VCHFILTER	IQUANT	3	Vch Filter
IERANGELOWERLIMIT	IQUANT	4	I/E Range Lower Limit
IERANGEMODE	TOGGLE	T	I/E AutoRange
IERANGE	IQUANT	5	I/E Range
ACHSELECT	IQUANT	0	Ach Select
ACHRANGE	IQUANT	2	Ach Range
ACHOFFSETENABLE	TOGGLE	F	Ach Offset Enable
ACHOFFSET	QUANT	0	Ach Offset (V)
ACHFILTER	IQUANT	1	Ach Filter
CABLEID	IQUANT	14	Cable ID
DCCALDATE	LABEL	3/18/2022	DC Calibration Date
ACCALDATE	LABEL	3/10/2016	AC Calibration Date
FRAMEWORKVERSION	QUANT	7,05	Framework Version
INSTRUMENTVERSION	LABEL	4.21	Instrument Version
CURVE1	TABLE
	Pt	T	Vf	Im	Vu	Sig	Ach	IERange	Over	Temp
	#	s	V vs. Ref.	A	V	V	V	#	bits	deg C
	0	0,1	9,98621E-002	-1,09478E-005	0,00000E+000	1,00006E-001	0,00000E+000	7	....ih..i..	-32768,00
	14	1,5	1,13810E-001	-3,27745E-005	0,00000E+000	1,13995E-001	0,00000E+000	8	...........	-32768,00
	28	2,9	1,27818E-001	-2,82908E-005	0,00000E+000	1,27996E-001	0,00000E+000	8	...........	-32768,00
	42	4,3	1,41829E-001	-2,45555E-005	0,00000E+000	1,41997E-001	0,00000E+000	8	...........	-32768,00
	56	5,7	1,55830E-001	-2,13501E-005	0,00000E+000	1,55998E-001	0,00000E+000	8	...........	-32768,00
	70	7,1	1,69827E-001	-1,84751E-005	0,00000E+000	1,69999E-001	0,00000E+000	8	...........	-32768,00
	84	8,5	1,83836E-001	-1,59134E-005	0,00000E+000	1,84000E-001	0,00000E+000	8	...........	-32768,00
	98	9,9	1,97829E-001	-1,34512E-005	0,00000E+000	1,98002E-001	0,00000E+000	8	...........	-32768,00
	112	11,3	2,11829E-001	-1,10934E-005	0,00000E+000	2,12003E-001	0,00000E+000	8	...........	-32768,00
	126	12,7	2,25829E-001	-8,68151E-006	0,00000E+000	2,26004E-001	0,00000E+000	8	...........	-32768,00
	140	14,1	2,39834E-001	-6,24672E-006	0,00000E+000	2,40005E-001	0,00000E+000	7	...........	-32768,00
	154	15,5	2,53836E-001	-3,81896E-006	0,00000E+000	2,54006E-001	0,00000E+000	7	...........	-32768,00
	168	16,9	2,67829E-001	-1,45163E-006	0,00000E+000	2,67995E-001	0,00000E+000	7	...........	-32768,00
	182	18,3	2,81841E-001	1,03968E-006	0,00000E+000	2,81996E-001	0,00000E+000	7	...........	-32768,00
	196	19,7	2,95850E-001	3,57200E-006	0,00000E+000	2,95997E-001	0,00000E+000	7	...........	-32768,00
	210	21,1	3,09844E-001	6,22045E-006	0,00000E+000	3,09998E-001	0,00000E+000	7	...........	-32768,00
	224	22,5	3,23841E-001	8,85117E-006	0,00000E+000	3,23999E-001	0,00000E+000	7	...........	-32768,00
	238	23,9	3,37850E-001	1,16769E-005	0,00000E+000	3,38000E-001	0,00000E+000	8	...........	-32768,00
	252	25,3	3,51843E-001	1,46250E-005	0,00000E+000	3,52001E-001	0,00000E+000	8	...........	-32768,00
	266	26,7	3,65856E-001	1,77273E-005	0,00000E+000	3,66003E-001	0,00000E+000	8	...........	-32768,00
	280	28,1	3,79860E-001	2,10947E-005	0,00000E+000	3,80004E-001	0,00000E+000	8	...........	-32768,00
	294	29,5	3,93856E-001	2,47441E-005	0,00000E+000	3,94005E-001	0,00000E+000	8	...........	-32768,00
	308	30,9	4,07853E-001	2,88705E-005	0,00000E+000	4,08006E-001	0,00000E+000	8	...........	-32768,00
	322	32,3	4,21838E-001	3,35310E-005	0,00000E+000	4,21995E-001	0,00000E+000	8	...........	-32768,00
	336	33,7	4,35844E-001	3,87032E-005	0,00000E+000	4,35996E-001	0,00000E+000	8	...........	-32768,00
	350	35,1	4,49853E-001	4,37910E-005	0,00000E+000	4,49997E-001	0,00000E+000	8	...........	-32768,00
	364	36,5	4,63859E-001	4,84479E-005	0,00000E+000	4,63998E-001	0,00000E+000	8	...........	-32768,00
	378	37,9	4,77879E-001	5,29454E-005	0,00000E+000	4,77999E-001	0,00000E+000	8	...........	-32768,00
	392	39,3	4,91869E-001	5,77673E-005	0,00000E+000	4,92000E-001	0,00000E+000	8	...........	-32768,00
	406	40,7	5,05868E-001	6,33679E-005	0,00000E+000	5,06001E-001	0,00000E+000	8	...........	-32768,00
	420	42,1	5,19883E-001	7,01657E-005	0,00000E+000	5,20002E-001	0,00000E+000	8	...........	-32768,00
	434	43,5	5,33879E-001	7,86460E-005	0,00000E+000	5,34003E-001	0,00000E+000	8	...........	-32768,00
	448	44,9	5,47877E-001	8,92309E-005	0,00000E+000	5,48005E-001	0,00000E+000	8	...........	-32768,00
	462	46,3	5,61875E-001	1,01517E-004	0,00000E+000	5,62006E-001	0,00000E+000	9	...........	-32768,00
	476	47,7	5,75863E-001	1,13802E-004	0,00000E+000	5,75994E-001	0,00000E+000	9	...........	-32768,00
	490	49,1	5,89901E-001	1,29053E-004	0,00000E+000	5,89996E-001	0,00000E+000	9	...........	-32768,00
	504	50,5	6,03892E-001	1,41495E-004	0,00000E+000	6,03997E-001	0,00000E+000	9	...........	-32768,00
	518	51,9	6,17900E-001	1,29323E-004	0,00000E+000	6,17998E-001	0,00000E+000	9	...........	-32768,00
	532	53,3	6,31910E-001	1,10653E-004	0,00000E+000	6,31999E-001	0,00000E+000	9	...........	-32768,00
	546	54,7	6,45907E-001	1,08274E-004	0,00000E+000	6,46000E-001	0,00000E+000	9	...........	-32768,00
	560	56,1	6,59908E-001	1,09916E-004	0,00000E+000	6,60001E-001	0,00000E+000	9	...........	-32768,00
	574	57,5	6,73909E-001	1,12403E-004	0,00000E+000	6,74002E-001	0,00000E+000	9	...........	-32768,00
	588	58,9	6,87910E-001	1,15243E-004	0,00000E+000	6,88003E-001	0,00000E+000	9	...........	-32768,00
	602	60,3	7,01921E-001	1,18453E-004	0,00000E+000	7,02004E-001	0,00000E+000	9	...........	-32768,00
	616	61,7	7,15921E-001	1,21936E-004	0,00000E+000	7,16006E-001	0,00000E+000	9	...........	-32768,00
	630	63,1	7,29915E-001	1,25391E-004	0,00000E+000	7,29994E-001	0,00000E+000	9	...........	-32768,00
	644	64,5	7,43954E-001	1,28879E-004	0,00000E+000	7,43995E-001	0,00000E+000	9	...........	-32768,00
	658	65,9	7,57947E-001	1,32437E-004	0,00000E+000	7,57996E-001	0,00000E+000	9	...........	-32768,00
	672	67,3	7,71946E-001	1,36201E-004	0,00000E+000	7,71998E-001	0,00000E+000	9	...........	-32768,00
	686	68,7	7,85958E-001	1,39622E-004	0,00000E+000	7,85999E-001	0,00000E+000	9	...........	-32768,00
	700	70,1	7,99956E-001	1,42732E-004	0,00000E+000	8,00000E-001	0,00000E+000	9	...........	-32768,00
	714	71,5	7,85955E-001	1,36818E-004	0,00000E+000	7,85999E-001	0,00000E+000	9	...........	-32768,00
	728	72,9	7,71937E-001	1,31144E-004	0,00000E+000	7,71998E-001	0,00000E+000	9	...........	-32768,00
	742	74,3	7,57946E-001	1,26273E-004	0,00000E+000	7,57996E-001	0,00000E+000	9	...........	-32768,00
	756	75,7	7,43951E-001	1,21766E-004	0,00000E+000	7,43995E-001	0,00000E+000	9	...........	-32768,00
	770	77,1	7,29925E-001	1,17478E-004	0,00000E+000	7,29994E-001	0,00000E+000	9	...........	-32768,00
	784	78,5	7,15913E-001	1,13233E-004	0,00000E+000	7,16006E-001	0,00000E+000	9	...........	-32768,00
	798	79,9	7,01916E-001	1,09201E-004	0,00000E+000	7,02004E-001	0,00000E+000	9	...........	-32768,00
	812	81,3	6,87914E-001	1,05199E-004	0,00000E+000	6,88003E-001	0,00000E+000	9	...........	-32768,00
	826	82,7	6,73908E-001	1,01327E-004	0,00000E+000	6,74002E-001	0,00000E+000	9	...........	-32768,00
	840	84,1	6,59903E-001	9,74145E-005	0,00000E+000	6,60001E-001	0,00000E+000	9	...........	-32768,00
	854	85,5	6,45905E-001	9,35902E-005	0,00000E+000	6,46000E-001	0,00000E+000	9	...........	-32768,00
	868	86,9	6,31907E-001	8,96869E-005	0,00000E+000	6,31999E-001	0,00000E+000	9	...........	-32768,00
	882	88,3	6,17896E-001	8,59488E-005	0,00000E+000	6,17998E-001	0,00000E+000	9	...........	-32768,00
	896	89,7	6,03905E-001	8,21802E-005	0,00000E+000	6,03997E-001	0,00000E+000	9	...........	-32768,00
	910	91,1	5,89892E-001	7,84493E-005	0,00000E+000	5,89996E-001	0,00000E+000	8	...........	-32768,00
	924	92,5	5,75854E-001	7,48555E-005	0,00000E+000	5,75994E-001	0,00000E+000	8	...........	-32768,00
	938	93,9	5,61869E-001	7,14032E-005	0,00000E+000	5,62006E-001	0,00000E+000	8	...........	-32768,00
	952	95,3	5,47870E-001	6,79318E-005	0,00000E+000	5,48005E-001	0,00000E+000	8	...........	-32768,00
	966	96,7	5,33879E-001	6,44886E-005	0,00000E+000	5,34003E-001	0,00000E+000	8	...........	-32768,00
	980	98,1	5,19880E-001	6,10461E-005	0,00000E+000	5,20002E-001	0,00000E+000	8	...........	-32768,00
	994	99,5	5,05859E-001	5,76163E-005	0,00000E+000	5,06001E-001	0,00000E+000	8	...........	-32768,00
	1008	100,9	4,91867E-001	5,41561E-005	0,00000E+000	4,92000E-001	0,00000E+000	8	...........	-32768,00
	1022	102,3	4,77879E-001	5,06728E-005	0,00000E+000	4,77999E-001	0,00000E+000	8	...........	-32768,00
	1036	103,7	4,63856E-001	4,69979E-005	0,00000E+000	4,63998E-001	0,00000E+000	8	...........	-32768,00
	1050	105,1	4,49857E-001	3,84356E-005	0,00000E+000	4,49997E-001	0,00000E+000	8	...........	-32768,00
	1064	106,5	4,35854E-001	2,07471E-005	0,00000E+000	4,35996E-001	0,00000E+000	8	...........	-32768,00
	1078	107,9	4,21830E-001	4,24905E-006	0,00000E+000	4,21995E-001	0,00000E+000	7	...........	-32768,00
	1092	109,3	4,07867E-001	-6,25426E-006	0,00000E+000	4,08006E-001	0,00000E+000	7	...........	-32768,00
	1106	110,7	3,93856E-001	-1,19478E-005	0,00000E+000	3,94005E-001	0,00000E+000	8	...........	-32768,00
	1120	112,1	3,79855E-001	-1,36050E-005	0,00000E+000	3,80004E-001	0,00000E+000	8	...........	-32768,00
	1134	113,5	3,65851E-001	-1,31070E-005	0,00000E+000	3,66003E-001	0,00000E+000	8	...........	-32768,00
	1148	114,9	3,51838E-001	-1,22893E-005	0,00000E+000	3,52001E-001	0,00000E+000	8	...........	-32768,00
	1162	116,3	3,37849E-001	-1,21124E-005	0,00000E+000	3,38000E-001	0,00000E+000	8	...........	-32768,00
	1176	117,7	3,23856E-001	-1,25556E-005	0,00000E+000	3,23999E-001	0,00000E+000	8	...........	-32768,00
	1190	119,1	3,09855E-001	-1,35999E-005	0,00000E+000	3,09998E-001	0,00000E+000	8	...........	-32768,00
	1204	120,5	2,95844E-001	-1,51600E-005	0,00000E+000	2,95997E-001	0,00000E+000	8	...........	-32768,00
	1218	121,9	2,81837E-001	-1,70022E-005	0,00000E+000	2,81996E-001	0,00000E+000	8	...........	-32768,00
	1232	123,3	2,67833E-001	-1,89685E-005	0,00000E+000	2,67995E-001	0,00000E+000	8	...........	-32768,00
	1246	124,7	2,53844E-001	-2,11526E-005	0,00000E+000	2,54006E-001	0,00000E+000	8	...........	-32768,00
	1260	126,1	2,39831E-001	-2,35468E-005	0,00000E+000	2,40005E-001	0,00000E+000	8	...........	-32768,00
	1274	127,5	2,25829E-001	-2,63419E-005	0,00000E+000	2,26004E-001	0,00000E+000	8	...........	-32768,00
	1288	128,9	2,11825E-001	-2,91960E-005	0,00000E+000	2,12003E-001	0,00000E+000	8	...........	-32768,00
	1302	130,3	1,97833E-001	-3,15587E-005	0,00000E+000	1,98002E-001	0,00000E+000	8	...........	-32768,00
	1316	131,7	1,83840E-001	-3,42727E-005	0,00000E+000	1,84000E-001	0,00000E+000	8	...........	-32768,00
	1330	133,1	1,69830E-001	-3,74633E-005	0,00000E+000	1,69999E-001	0,00000E+000	8	...........	-32768,00
	1344	134,5	1,55832E-001	-4,07789E-005	0,00000E+000	1,55998E-001	0,00000E+000	8	...........	-32768,00
	1358	135,9	1,41827E-001	-4,40980E-005	0,00000E+000	1,41997E-001	0,00000E+000	8	...........	-32768,00
	1372	137,3	1,27809E-001	-4,73067E-005	0,00000E+000	1,27996E-001	0,00000E+000	8	...........	-32768,00
	1386	138,7	1,13797E-001	-5,04905E-005	0,00000E+000	1,13995E-001	0,00000E+000	8	...........	-32768,00
	1400	140,1	9,98230E-002	-5,37006E-005	0,00000E+000	1,00006E-001	0,00000E+000	8	...........	-32768,00