File: HOPG_cv/5mM/AgNO3_HOPG_5mM_50mv_1_cv.DTA
EXPLAIN
TAG	CV
TITLE	LABEL	Cyclic Voltammetry	Test &Identifier
DATE	LABEL	30/4/2022	Date
TIME	LABEL	14:23:01	Time
NOTES	NOTES	2	&Notes...
	30/04/22 , 5mM  AgNO3

PSTAT	PSTAT	IFC1000-09004	Potentiostat
VINIT	POTEN	1,00000E-001	F	Initial &E (V)
VLIMIT1	POTEN	1,00000E-001	F	Scan Limit &1 (V)
VLIMIT2	POTEN	8,00000E-001	F	Scan Limit &2 (V)
VFINAL	POTEN	1,00000E-001	F	Final &E (V)
SCANRATE	QUANT	4,99999E+001	&Scan Rate (mV/s)
STEPSIZE	QUANT	1,00000E+000	St&ep Size (mV)
CYCLES	IQUANT	1	C&ycles (#)
IMODE	SELECTOR	0	I/E Range &Mode
IRANGE	QUANT	1,00000E-005	&Max Current (mA)
AREA	QUANT	1,00000E+000	Electrode &Area (cm^2)
ELECTRODETYPE	SELECTOR	0	Electrode Type
STRIPPING	TOGGLE	F	Used for Stripping
POLARITY	TOGGLE	F	Signal Polarity
CONDIT	TWOPARAM	F	1,50000E+001	0,00000E+000	Conditionin&g	Time(s)	E(V)
DELAY	TWOPARAM	F	3,00000E+001	0,00000E+000	Init. De&lay	Time(s)	Stab.(mV/s)
EQDELAY	QUANT	1,00000E+001	Equil. &Time (s)
IRCOMP	SELECTOR	0	IRCom&p
PFCOR	QUANT	5,00000E+001	PF Corr. (ohm)
SAMPLINGMODE	SELECTOR	1	Sampling &Mode
EOC	QUANT	0	Open Circuit (V)
PSTATMODEL	IQUANT	48	Pstat Model
PSTATSECTION	LABEL	IFC1000-09004	Pstat Section
PSTATSERIALNO	LABEL	09004	Pstat Serial Number
CTRLMODE	IQUANT	1	Control Mode
ELECTROMETER	IQUANT	0	RE=0 or CS=1
IESTAB	IQUANT	2	I/E Stability
CASPEED	IQUANT	4	Control Amp Speed
CONVENTION	IQUANT	1	Current Convention
ICHRANGE	IQUANT	2	Ich Range
ICHRANGEMODE	TOGGLE	F	Ich Auto Range
ICHOFFSETENABLE	TOGGLE	F	Ich Offset Enable
ICHOFFSET	QUANT	0	Ich Offset (V)
ICHFILTER	IQUANT	3	Ich Filter
VCHRANGE	IQUANT	2	Vch Range
VCHRANGEMODE	TOGGLE	F	Vch Auto Range
VCHOFFSETENABLE	TOGGLE	F	Vch Offset Enable
VCHOFFSET	QUANT	0	Vch Offset (V)
VCHFILTER	IQUANT	3	Vch Filter
IERANGELOWERLIMIT	IQUANT	4	I/E Range Lower Limit
IERANGEMODE	TOGGLE	T	I/E AutoRange
IERANGE	IQUANT	5	I/E Range
ACHSELECT	IQUANT	0	Ach Select
ACHRANGE	IQUANT	2	Ach Range
ACHOFFSETENABLE	TOGGLE	F	Ach Offset Enable
ACHOFFSET	QUANT	0	Ach Offset (V)
ACHFILTER	IQUANT	1	Ach Filter
CABLEID	IQUANT	14	Cable ID
DCCALDATE	LABEL	3/18/2022	DC Calibration Date
ACCALDATE	LABEL	3/10/2016	AC Calibration Date
FRAMEWORKVERSION	QUANT	7,05	Framework Version
INSTRUMENTVERSION	LABEL	4.21	Instrument Version
CURVE1	TABLE
	Pt	T	Vf	Im	Vu	Sig	Ach	IERange	Over	Temp
	#	s	V vs. Ref.	A	V	V	V	#	bits	deg C
	0	0,02	9,98765E-002	-1,09478E-005	0,00000E+000	1,00006E-001	0,00000E+000	7	....ih..i..	-32768,00
	15	0,32	1,14824E-001	-3,13332E-005	0,00000E+000	1,14995E-001	0,00000E+000	8	...........	-32768,00
	30	0,62	1,29850E-001	-2,69857E-005	0,00000E+000	1,29996E-001	0,00000E+000	8	...........	-32768,00
	45	0,92	1,44838E-001	-2,31408E-005	0,00000E+000	1,44997E-001	0,00000E+000	8	...........	-32768,00
	60	1,22	1,59844E-001	-1,98033E-005	0,00000E+000	1,59999E-001	0,00000E+000	8	...........	-32768,00
	75	1,52	1,74853E-001	-1,69041E-005	0,00000E+000	1,75000E-001	0,00000E+000	8	...........	-32768,00
	90	1,82	1,89847E-001	-1,43731E-005	0,00000E+000	1,90001E-001	0,00000E+000	8	...........	-32768,00
	105	2,12	2,04845E-001	-1,18933E-005	0,00000E+000	2,05002E-001	0,00000E+000	8	...........	-32768,00
	120	2,42	2,19851E-001	-9,55423E-006	0,00000E+000	2,20003E-001	0,00000E+000	8	...........	-32768,00
	135	2,72	2,34870E-001	-7,23251E-006	0,00000E+000	2,35005E-001	0,00000E+000	7	...........	-32768,00
	150	3,02	2,49856E-001	-4,89897E-006	0,00000E+000	2,50006E-001	0,00000E+000	7	...........	-32768,00
	165	3,32	2,64865E-001	-2,54661E-006	0,00000E+000	2,64994E-001	0,00000E+000	7	...........	-32768,00
	180	3,62	2,79844E-001	-1,45521E-007	0,00000E+000	2,79996E-001	0,00000E+000	7	...........	-32768,00
	195	3,92	2,94832E-001	2,35932E-006	0,00000E+000	2,94997E-001	0,00000E+000	7	...........	-32768,00
	210	4,22	3,09860E-001	4,89941E-006	0,00000E+000	3,09998E-001	0,00000E+000	7	...........	-32768,00
	225	4,52	3,24861E-001	7,67917E-006	0,00000E+000	3,24999E-001	0,00000E+000	7	...........	-32768,00
	240	4,82	3,39863E-001	1,05695E-005	0,00000E+000	3,40000E-001	0,00000E+000	8	...........	-32768,00
	255	5,12	3,54856E-001	1,38595E-005	0,00000E+000	3,55002E-001	0,00000E+000	8	...........	-32768,00
	270	5,42	3,69853E-001	1,75762E-005	0,00000E+000	3,70003E-001	0,00000E+000	8	...........	-32768,00
	285	5,72	3,84887E-001	2,18216E-005	0,00000E+000	3,85004E-001	0,00000E+000	8	...........	-32768,00
	300	6,02	3,99873E-001	2,67752E-005	0,00000E+000	4,00005E-001	0,00000E+000	8	...........	-32768,00
	315	6,32	4,14853E-001	3,21222E-005	0,00000E+000	4,14994E-001	0,00000E+000	8	...........	-32768,00
	330	6,62	4,29866E-001	3,75895E-005	0,00000E+000	4,29995E-001	0,00000E+000	8	...........	-32768,00
	345	6,92	4,44848E-001	4,30402E-005	0,00000E+000	4,44996E-001	0,00000E+000	8	...........	-32768,00
	360	7,22	4,59846E-001	4,87656E-005	0,00000E+000	4,59998E-001	0,00000E+000	8	...........	-32768,00
	375	7,52	4,74886E-001	5,48322E-005	0,00000E+000	4,74999E-001	0,00000E+000	8	...........	-32768,00
	390	7,82	4,89877E-001	6,13063E-005	0,00000E+000	4,90000E-001	0,00000E+000	8	...........	-32768,00
	405	8,12	5,04873E-001	6,87429E-005	0,00000E+000	5,05001E-001	0,00000E+000	8	...........	-32768,00
	420	8,42	5,19886E-001	7,79459E-005	0,00000E+000	5,20002E-001	0,00000E+000	8	...........	-32768,00
	435	8,72	5,34896E-001	8,95498E-005	0,00000E+000	5,35004E-001	0,00000E+000	8	...........	-32768,00
	450	9,02	5,49890E-001	1,04045E-004	0,00000E+000	5,50005E-001	0,00000E+000	9	...........	-32768,00
	465	9,32	5,64917E-001	1,21194E-004	0,00000E+000	5,65006E-001	0,00000E+000	9	...........	-32768,00
	480	9,62	5,79894E-001	1,40620E-004	0,00000E+000	5,79995E-001	0,00000E+000	9	...........	-32768,00
	495	9,92	5,94893E-001	1,67495E-004	0,00000E+000	5,94996E-001	0,00000E+000	9	...........	-32768,00
	510	10,22	6,09887E-001	2,00690E-004	0,00000E+000	6,09997E-001	0,00000E+000	9	...........	-32768,00
	525	10,52	6,24887E-001	2,33650E-004	0,00000E+000	6,24998E-001	0,00000E+000	9	...........	-32768,00
	540	10,82	6,39905E-001	2,43538E-004	0,00000E+000	6,40000E-001	0,00000E+000	9	...........	-32768,00
	555	11,12	6,54918E-001	1,82247E-004	0,00000E+000	6,55001E-001	0,00000E+000	9	...........	-32768,00
	570	11,42	6,69930E-001	1,53585E-004	0,00000E+000	6,70002E-001	0,00000E+000	9	...........	-32768,00
	585	11,72	6,84927E-001	1,46528E-004	0,00000E+000	6,85003E-001	0,00000E+000	9	...........	-32768,00
	600	12,02	6,99943E-001	1,45045E-004	0,00000E+000	7,00004E-001	0,00000E+000	9	...........	-32768,00
	615	12,32	7,14925E-001	1,46003E-004	0,00000E+000	7,15006E-001	0,00000E+000	9	...........	-32768,00
	630	12,62	7,29915E-001	1,48259E-004	0,00000E+000	7,29994E-001	0,00000E+000	9	...........	-32768,00
	645	12,92	7,44934E-001	1,51245E-004	0,00000E+000	7,44995E-001	0,00000E+000	9	...........	-32768,00
	660	13,22	7,59942E-001	1,54706E-004	0,00000E+000	7,59997E-001	0,00000E+000	9	...........	-32768,00
	675	13,52	7,74953E-001	1,59191E-004	0,00000E+000	7,74998E-001	0,00000E+000	9	...........	-32768,00
	690	13,82	7,89954E-001	1,63297E-004	0,00000E+000	7,89999E-001	0,00000E+000	9	...........	-32768,00
	705	14,12	7,94963E-001	1,61401E-004	0,00000E+000	7,94999E-001	0,00000E+000	9	...........	-32768,00
	720	14,42	7,79939E-001	1,48588E-004	0,00000E+000	7,79998E-001	0,00000E+000	9	...........	-32768,00
	735	14,72	7,64927E-001	1,38368E-004	0,00000E+000	7,64997E-001	0,00000E+000	9	...........	-32768,00
	750	15,02	7,49936E-001	1,29625E-004	0,00000E+000	7,49996E-001	0,00000E+000	9	...........	-32768,00
	765	15,32	7,34930E-001	1,21992E-004	0,00000E+000	7,34995E-001	0,00000E+000	9	...........	-32768,00
	780	15,62	7,19944E-001	1,14767E-004	0,00000E+000	7,20006E-001	0,00000E+000	9	...........	-32768,00
	795	15,92	7,04911E-001	1,08154E-004	0,00000E+000	7,05005E-001	0,00000E+000	9	...........	-32768,00
	810	16,22	6,89922E-001	1,01828E-004	0,00000E+000	6,90004E-001	0,00000E+000	9	...........	-32768,00
	825	16,52	6,74907E-001	9,58542E-005	0,00000E+000	6,75002E-001	0,00000E+000	9	...........	-32768,00
	840	16,82	6,59903E-001	9,00987E-005	0,00000E+000	6,60001E-001	0,00000E+000	9	...........	-32768,00
	855	17,12	6,44905E-001	8,45794E-005	0,00000E+000	6,45000E-001	0,00000E+000	9	...........	-32768,00
	870	17,42	6,29900E-001	7,92389E-005	0,00000E+000	6,29999E-001	0,00000E+000	8	...........	-32768,00
	885	17,72	6,14877E-001	7,40023E-005	0,00000E+000	6,14998E-001	0,00000E+000	8	...........	-32768,00
	900	18,02	5,99879E-001	6,90492E-005	0,00000E+000	5,99996E-001	0,00000E+000	8	...........	-32768,00
	915	18,32	5,84882E-001	6,44832E-005	0,00000E+000	5,84995E-001	0,00000E+000	8	...........	-32768,00
	930	18,62	5,69874E-001	6,03835E-005	0,00000E+000	5,69994E-001	0,00000E+000	8	...........	-32768,00
	945	18,92	5,54890E-001	5,64332E-005	0,00000E+000	5,55005E-001	0,00000E+000	8	...........	-32768,00
	960	19,22	5,39894E-001	5,25393E-005	0,00000E+000	5,40004E-001	0,00000E+000	8	...........	-32768,00
	975	19,52	5,24864E-001	4,86682E-005	0,00000E+000	5,25003E-001	0,00000E+000	8	...........	-32768,00
	990	19,82	5,09870E-001	4,47569E-005	0,00000E+000	5,10002E-001	0,00000E+000	8	...........	-32768,00
	1005	20,12	4,94858E-001	4,07637E-005	0,00000E+000	4,95000E-001	0,00000E+000	8	...........	-32768,00
	1020	20,42	4,79875E-001	3,66955E-005	0,00000E+000	4,79999E-001	0,00000E+000	8	...........	-32768,00
	1035	20,72	4,64862E-001	3,23756E-005	0,00000E+000	4,64998E-001	0,00000E+000	8	...........	-32768,00
	1050	21,02	4,49858E-001	2,59329E-005	0,00000E+000	4,49997E-001	0,00000E+000	8	...........	-32768,00
	1065	21,32	4,34856E-001	7,09035E-006	0,00000E+000	4,34996E-001	0,00000E+000	8	...........	-32768,00
	1080	21,62	4,19858E-001	-2,74269E-005	0,00000E+000	4,19994E-001	0,00000E+000	8	...........	-32768,00
	1095	21,92	4,04880E-001	-5,57829E-005	0,00000E+000	4,05006E-001	0,00000E+000	8	...........	-32768,00
	1110	22,22	3,89882E-001	-7,05568E-005	0,00000E+000	3,90004E-001	0,00000E+000	8	...........	-32768,00
	1125	22,52	3,74887E-001	-7,64403E-005	0,00000E+000	3,75003E-001	0,00000E+000	8	...........	-32768,00
	1140	22,82	3,59891E-001	-7,64530E-005	0,00000E+000	3,60002E-001	0,00000E+000	8	...........	-32768,00
	1155	23,12	3,44862E-001	-7,29368E-005	0,00000E+000	3,45001E-001	0,00000E+000	8	...........	-32768,00
	1170	23,42	3,29855E-001	-6,79494E-005	0,00000E+000	3,30000E-001	0,00000E+000	8	...........	-32768,00
	1185	23,72	3,14859E-001	-6,30840E-005	0,00000E+000	3,14998E-001	0,00000E+000	8	...........	-32768,00
	1200	24,02	2,99846E-001	-5,92223E-005	0,00000E+000	2,99997E-001	0,00000E+000	8	...........	-32768,00
	1215	24,32	2,84856E-001	-5,66795E-005	0,00000E+000	2,84996E-001	0,00000E+000	8	...........	-32768,00
	1230	24,62	2,69864E-001	-5,52507E-005	0,00000E+000	2,69995E-001	0,00000E+000	8	...........	-32768,00
	1245	24,92	2,54843E-001	-5,46914E-005	0,00000E+000	2,55006E-001	0,00000E+000	8	...........	-32768,00
	1260	25,22	2,39846E-001	-5,43399E-005	0,00000E+000	2,40005E-001	0,00000E+000	8	...........	-32768,00
	1275	25,52	2,24849E-001	-5,48654E-005	0,00000E+000	2,25004E-001	0,00000E+000	8	...........	-32768,00
	1290	25,82	2,09845E-001	-5,56393E-005	0,00000E+000	2,10003E-001	0,00000E+000	8	...........	-32768,00
	1305	26,12	1,94849E-001	-5,66302E-005	0,00000E+000	1,95001E-001	0,00000E+000	8	...........	-32768,00
	1320	26,42	1,79863E-001	-5,81004E-005	0,00000E+000	1,80000E-001	0,00000E+000	8	...........	-32768,00
	1335	26,72	1,64835E-001	-5,99350E-005	0,00000E+000	1,64999E-001	0,00000E+000	8	...........	-32768,00
	1350	27,02	1,49841E-001	-6,20607E-005	0,00000E+000	1,49998E-001	0,00000E+000	8	...........	-32768,00
	1365	27,32	1,34823E-001	-6,49094E-005	0,00000E+000	1,34997E-001	0,00000E+000	8	...........	-32768,00
	1380	27,62	1,19832E-001	-6,78654E-005	0,00000E+000	1,19995E-001	0,00000E+000	8	...........	-32768,00
	1395	27,92	1,04827E-001	-7,12401E-005	0,00000E+000	1,04994E-001	0,00000E+000	8	...........	-32768,00
	1400	28,02	9,98352E-002	-7,22334E-005	0,00000E+000	1,00006E-001	0,00000E+000	8	...........	-32768,00