File: HOPG_cv/5mM/AgNO3_HOPG_5mM_40mv_1_cv.DTA
EXPLAIN
TAG	CV
TITLE	LABEL	Cyclic Voltammetry	Test &Identifier
DATE	LABEL	30/4/2022	Date
TIME	LABEL	14:23:50	Time
NOTES	NOTES	2	&Notes...
	30/04/22 , 5mM  AgNO3

PSTAT	PSTAT	IFC1000-09004	Potentiostat
VINIT	POTEN	1,00000E-001	F	Initial &E (V)
VLIMIT1	POTEN	1,00000E-001	F	Scan Limit &1 (V)
VLIMIT2	POTEN	8,00000E-001	F	Scan Limit &2 (V)
VFINAL	POTEN	1,00000E-001	F	Final &E (V)
SCANRATE	QUANT	3,99999E+001	&Scan Rate (mV/s)
STEPSIZE	QUANT	1,00000E+000	St&ep Size (mV)
CYCLES	IQUANT	1	C&ycles (#)
IMODE	SELECTOR	0	I/E Range &Mode
IRANGE	QUANT	1,00000E-005	&Max Current (mA)
AREA	QUANT	1,00000E+000	Electrode &Area (cm^2)
ELECTRODETYPE	SELECTOR	0	Electrode Type
STRIPPING	TOGGLE	F	Used for Stripping
POLARITY	TOGGLE	F	Signal Polarity
CONDIT	TWOPARAM	F	1,50000E+001	0,00000E+000	Conditionin&g	Time(s)	E(V)
DELAY	TWOPARAM	F	3,00000E+001	0,00000E+000	Init. De&lay	Time(s)	Stab.(mV/s)
EQDELAY	QUANT	1,00000E+001	Equil. &Time (s)
IRCOMP	SELECTOR	0	IRCom&p
PFCOR	QUANT	5,00000E+001	PF Corr. (ohm)
SAMPLINGMODE	SELECTOR	1	Sampling &Mode
EOC	QUANT	0	Open Circuit (V)
PSTATMODEL	IQUANT	48	Pstat Model
PSTATSECTION	LABEL	IFC1000-09004	Pstat Section
PSTATSERIALNO	LABEL	09004	Pstat Serial Number
CTRLMODE	IQUANT	1	Control Mode
ELECTROMETER	IQUANT	0	RE=0 or CS=1
IESTAB	IQUANT	2	I/E Stability
CASPEED	IQUANT	4	Control Amp Speed
CONVENTION	IQUANT	1	Current Convention
ICHRANGE	IQUANT	2	Ich Range
ICHRANGEMODE	TOGGLE	F	Ich Auto Range
ICHOFFSETENABLE	TOGGLE	F	Ich Offset Enable
ICHOFFSET	QUANT	0	Ich Offset (V)
ICHFILTER	IQUANT	3	Ich Filter
VCHRANGE	IQUANT	2	Vch Range
VCHRANGEMODE	TOGGLE	F	Vch Auto Range
VCHOFFSETENABLE	TOGGLE	F	Vch Offset Enable
VCHOFFSET	QUANT	0	Vch Offset (V)
VCHFILTER	IQUANT	3	Vch Filter
IERANGELOWERLIMIT	IQUANT	4	I/E Range Lower Limit
IERANGEMODE	TOGGLE	T	I/E AutoRange
IERANGE	IQUANT	5	I/E Range
ACHSELECT	IQUANT	0	Ach Select
ACHRANGE	IQUANT	2	Ach Range
ACHOFFSETENABLE	TOGGLE	F	Ach Offset Enable
ACHOFFSET	QUANT	0	Ach Offset (V)
ACHFILTER	IQUANT	1	Ach Filter
CABLEID	IQUANT	14	Cable ID
DCCALDATE	LABEL	3/18/2022	DC Calibration Date
ACCALDATE	LABEL	3/10/2016	AC Calibration Date
FRAMEWORKVERSION	QUANT	7,05	Framework Version
INSTRUMENTVERSION	LABEL	4.21	Instrument Version
CURVE1	TABLE
	Pt	T	Vf	Im	Vu	Sig	Ach	IERange	Over	Temp
	#	s	V vs. Ref.	A	V	V	V	#	bits	deg C
	0	0,025	9,98766E-002	-1,09478E-005	0,00000E+000	1,00006E-001	0,00000E+000	7	....ih..i..	-32768,00
	15	0,4	1,14817E-001	-3,19982E-005	0,00000E+000	1,14995E-001	0,00000E+000	8	...........	-32768,00
	30	0,775	1,29842E-001	-2,74679E-005	0,00000E+000	1,29996E-001	0,00000E+000	8	...........	-32768,00
	45	1,15	1,44837E-001	-2,37440E-005	0,00000E+000	1,44997E-001	0,00000E+000	8	...........	-32768,00
	60	1,525	1,59839E-001	-2,06011E-005	0,00000E+000	1,59999E-001	0,00000E+000	8	...........	-32768,00
	75	1,9	1,74829E-001	-1,77539E-005	0,00000E+000	1,75000E-001	0,00000E+000	8	...........	-32768,00
	90	2,275	1,89842E-001	-1,51577E-005	0,00000E+000	1,90001E-001	0,00000E+000	8	...........	-32768,00
	105	2,65	2,04835E-001	-1,27428E-005	0,00000E+000	2,05002E-001	0,00000E+000	8	...........	-32768,00
	120	3,025	2,19854E-001	-1,03621E-005	0,00000E+000	2,20003E-001	0,00000E+000	8	...........	-32768,00
	135	3,4	2,34851E-001	-7,99527E-006	0,00000E+000	2,35005E-001	0,00000E+000	8	...........	-32768,00
	150	3,775	2,49847E-001	-5,68579E-006	0,00000E+000	2,50006E-001	0,00000E+000	7	...........	-32768,00
	165	4,15	2,64849E-001	-3,23899E-006	0,00000E+000	2,64994E-001	0,00000E+000	7	...........	-32768,00
	180	4,525	2,79828E-001	-8,45289E-007	0,00000E+000	2,79996E-001	0,00000E+000	7	...........	-32768,00
	195	4,9	2,94828E-001	1,68076E-006	0,00000E+000	2,94997E-001	0,00000E+000	7	...........	-32768,00
	210	5,275	3,09846E-001	4,27663E-006	0,00000E+000	3,09998E-001	0,00000E+000	7	...........	-32768,00
	225	5,65	3,24847E-001	7,04015E-006	0,00000E+000	3,24999E-001	0,00000E+000	7	...........	-32768,00
	240	6,025	3,39860E-001	1,00308E-005	0,00000E+000	3,40000E-001	0,00000E+000	8	...........	-32768,00
	255	6,4	3,54849E-001	1,33012E-005	0,00000E+000	3,55002E-001	0,00000E+000	8	...........	-32768,00
	270	6,775	3,69853E-001	1,69368E-005	0,00000E+000	3,70003E-001	0,00000E+000	8	...........	-32768,00
	285	7,15	3,84879E-001	2,11342E-005	0,00000E+000	3,85004E-001	0,00000E+000	8	...........	-32768,00
	300	7,525	3,99874E-001	2,59280E-005	0,00000E+000	4,00005E-001	0,00000E+000	8	...........	-32768,00
	315	7,9	4,14856E-001	3,12584E-005	0,00000E+000	4,14994E-001	0,00000E+000	8	...........	-32768,00
	330	8,275	4,29872E-001	3,67694E-005	0,00000E+000	4,29995E-001	0,00000E+000	8	...........	-32768,00
	345	8,65	4,44850E-001	4,22415E-005	0,00000E+000	4,44996E-001	0,00000E+000	8	...........	-32768,00
	360	9,025	4,59842E-001	4,78679E-005	0,00000E+000	4,59998E-001	0,00000E+000	8	...........	-32768,00
	375	9,4	4,74889E-001	5,36404E-005	0,00000E+000	4,74999E-001	0,00000E+000	8	...........	-32768,00
	390	9,775	4,89873E-001	5,98068E-005	0,00000E+000	4,90000E-001	0,00000E+000	8	...........	-32768,00
	405	10,15	5,04876E-001	6,69313E-005	0,00000E+000	5,05001E-001	0,00000E+000	8	...........	-32768,00
	420	10,525	5,19884E-001	7,57550E-005	0,00000E+000	5,20002E-001	0,00000E+000	8	...........	-32768,00
	435	10,9	5,34879E-001	8,69601E-005	0,00000E+000	5,35004E-001	0,00000E+000	8	...........	-32768,00
	450	11,275	5,49887E-001	1,00922E-004	0,00000E+000	5,50005E-001	0,00000E+000	9	...........	-32768,00
	465	11,65	5,64908E-001	1,17159E-004	0,00000E+000	5,65006E-001	0,00000E+000	9	...........	-32768,00
	480	12,025	5,79898E-001	1,35144E-004	0,00000E+000	5,79995E-001	0,00000E+000	9	...........	-32768,00
	495	12,4	5,94889E-001	1,60722E-004	0,00000E+000	5,94996E-001	0,00000E+000	9	...........	-32768,00
	510	12,775	6,09897E-001	1,90480E-004	0,00000E+000	6,09997E-001	0,00000E+000	9	...........	-32768,00
	525	13,15	6,24891E-001	2,12605E-004	0,00000E+000	6,24998E-001	0,00000E+000	9	...........	-32768,00
	540	13,525	6,39905E-001	1,86090E-004	0,00000E+000	6,40000E-001	0,00000E+000	9	...........	-32768,00
	555	13,9	6,54918E-001	1,42858E-004	0,00000E+000	6,55001E-001	0,00000E+000	9	...........	-32768,00
	570	14,275	6,69932E-001	1,33802E-004	0,00000E+000	6,70002E-001	0,00000E+000	9	...........	-32768,00
	585	14,65	6,84930E-001	1,32332E-004	0,00000E+000	6,85003E-001	0,00000E+000	9	...........	-32768,00
	600	15,025	6,99930E-001	1,33403E-004	0,00000E+000	7,00004E-001	0,00000E+000	9	...........	-32768,00
	615	15,4	7,14916E-001	1,35836E-004	0,00000E+000	7,15006E-001	0,00000E+000	9	...........	-32768,00
	630	15,775	7,29916E-001	1,39118E-004	0,00000E+000	7,29994E-001	0,00000E+000	9	...........	-32768,00
	645	16,15	7,44934E-001	1,42654E-004	0,00000E+000	7,44995E-001	0,00000E+000	9	...........	-32768,00
	660	16,525	7,59939E-001	1,46564E-004	0,00000E+000	7,59997E-001	0,00000E+000	9	...........	-32768,00
	675	16,9	7,74955E-001	1,51053E-004	0,00000E+000	7,74998E-001	0,00000E+000	9	...........	-32768,00
	690	17,275	7,89948E-001	1,55477E-004	0,00000E+000	7,89999E-001	0,00000E+000	9	...........	-32768,00
	705	17,65	7,94973E-001	1,54219E-004	0,00000E+000	7,94999E-001	0,00000E+000	9	...........	-32768,00
	720	18,025	7,79939E-001	1,43163E-004	0,00000E+000	7,79998E-001	0,00000E+000	9	...........	-32768,00
	735	18,4	7,64930E-001	1,34219E-004	0,00000E+000	7,64997E-001	0,00000E+000	9	...........	-32768,00
	750	18,775	7,49935E-001	1,26463E-004	0,00000E+000	7,49996E-001	0,00000E+000	9	...........	-32768,00
	765	19,15	7,34933E-001	1,19392E-004	0,00000E+000	7,34995E-001	0,00000E+000	9	...........	-32768,00
	780	19,525	7,19943E-001	1,13179E-004	0,00000E+000	7,20006E-001	0,00000E+000	9	...........	-32768,00
	795	19,9	7,04909E-001	1,07108E-004	0,00000E+000	7,05005E-001	0,00000E+000	9	...........	-32768,00
	810	20,275	6,89916E-001	1,01098E-004	0,00000E+000	6,90004E-001	0,00000E+000	9	...........	-32768,00
	825	20,65	6,74907E-001	9,53177E-005	0,00000E+000	6,75002E-001	0,00000E+000	9	...........	-32768,00
	840	21,025	6,59899E-001	8,99268E-005	0,00000E+000	6,60001E-001	0,00000E+000	9	...........	-32768,00
	855	21,4	6,44899E-001	8,47496E-005	0,00000E+000	6,45000E-001	0,00000E+000	9	...........	-32768,00
	870	21,775	6,29907E-001	7,97546E-005	0,00000E+000	6,29999E-001	0,00000E+000	8	...........	-32768,00
	885	22,15	6,14874E-001	7,49310E-005	0,00000E+000	6,14998E-001	0,00000E+000	8	...........	-32768,00
	900	22,525	5,99874E-001	7,02522E-005	0,00000E+000	5,99996E-001	0,00000E+000	8	...........	-32768,00
	915	22,9	5,84886E-001	6,58204E-005	0,00000E+000	5,84995E-001	0,00000E+000	8	...........	-32768,00
	930	23,275	5,69872E-001	6,18130E-005	0,00000E+000	5,69994E-001	0,00000E+000	8	...........	-32768,00
	945	23,65	5,54892E-001	5,80130E-005	0,00000E+000	5,55005E-001	0,00000E+000	8	...........	-32768,00
	960	24,025	5,39896E-001	5,42496E-005	0,00000E+000	5,40004E-001	0,00000E+000	8	...........	-32768,00
	975	24,4	5,24872E-001	5,04663E-005	0,00000E+000	5,25003E-001	0,00000E+000	8	...........	-32768,00
	990	24,775	5,09865E-001	4,66064E-005	0,00000E+000	5,10002E-001	0,00000E+000	8	...........	-32768,00
	1005	25,15	4,94863E-001	4,27607E-005	0,00000E+000	4,95000E-001	0,00000E+000	8	...........	-32768,00
	1020	25,525	4,79867E-001	3,87495E-005	0,00000E+000	4,79999E-001	0,00000E+000	8	...........	-32768,00
	1035	25,9	4,64869E-001	3,46333E-005	0,00000E+000	4,64998E-001	0,00000E+000	8	...........	-32768,00
	1050	26,275	4,49870E-001	2,83520E-005	0,00000E+000	4,49997E-001	0,00000E+000	8	...........	-32768,00
	1065	26,65	4,34856E-001	9,49717E-006	0,00000E+000	4,34996E-001	0,00000E+000	8	...........	-32768,00
	1080	27,025	4,19850E-001	-2,21640E-005	0,00000E+000	4,19994E-001	0,00000E+000	8	...........	-32768,00
	1095	27,4	4,04875E-001	-4,63369E-005	0,00000E+000	4,05006E-001	0,00000E+000	8	...........	-32768,00
	1110	27,775	3,89882E-001	-5,86154E-005	0,00000E+000	3,90004E-001	0,00000E+000	8	...........	-32768,00
	1125	28,15	3,74877E-001	-6,34151E-005	0,00000E+000	3,75003E-001	0,00000E+000	8	...........	-32768,00
	1140	28,525	3,59877E-001	-6,33741E-005	0,00000E+000	3,60002E-001	0,00000E+000	8	...........	-32768,00
	1155	28,9	3,44854E-001	-6,02031E-005	0,00000E+000	3,45001E-001	0,00000E+000	8	...........	-32768,00
	1170	29,275	3,29855E-001	-5,58252E-005	0,00000E+000	3,30000E-001	0,00000E+000	8	...........	-32768,00
	1185	29,65	3,14857E-001	-5,21356E-005	0,00000E+000	3,14998E-001	0,00000E+000	8	...........	-32768,00
	1200	30,025	2,99853E-001	-4,94993E-005	0,00000E+000	2,99997E-001	0,00000E+000	8	...........	-32768,00
	1215	30,4	2,84858E-001	-4,79610E-005	0,00000E+000	2,84996E-001	0,00000E+000	8	...........	-32768,00
	1230	30,775	2,69861E-001	-4,72875E-005	0,00000E+000	2,69995E-001	0,00000E+000	8	...........	-32768,00
	1245	31,15	2,54846E-001	-4,73148E-005	0,00000E+000	2,55006E-001	0,00000E+000	8	...........	-32768,00
	1260	31,525	2,39835E-001	-4,79326E-005	0,00000E+000	2,40005E-001	0,00000E+000	8	...........	-32768,00
	1275	31,9	2,24839E-001	-4,88727E-005	0,00000E+000	2,25004E-001	0,00000E+000	8	...........	-32768,00
	1290	32,275	2,09840E-001	-4,99394E-005	0,00000E+000	2,10003E-001	0,00000E+000	8	...........	-32768,00
	1305	32,65	1,94839E-001	-5,13852E-005	0,00000E+000	1,95001E-001	0,00000E+000	8	...........	-32768,00
	1320	33,025	1,79858E-001	-5,30759E-005	0,00000E+000	1,80000E-001	0,00000E+000	8	...........	-32768,00
	1335	33,4	1,64846E-001	-5,51978E-005	0,00000E+000	1,64999E-001	0,00000E+000	8	...........	-32768,00
	1350	33,775	1,49833E-001	-5,77006E-005	0,00000E+000	1,49998E-001	0,00000E+000	8	...........	-32768,00
	1365	34,15	1,34836E-001	-6,07297E-005	0,00000E+000	1,34997E-001	0,00000E+000	8	...........	-32768,00
	1380	34,525	1,19831E-001	-6,37575E-005	0,00000E+000	1,19995E-001	0,00000E+000	8	...........	-32768,00
	1395	34,9	1,04837E-001	-6,70937E-005	0,00000E+000	1,04994E-001	0,00000E+000	8	...........	-32768,00
	1400	35,025	9,98219E-002	-6,83015E-005	0,00000E+000	1,00006E-001	0,00000E+000	8	...........	-32768,00