File: HOPG_cv/5mM/AgNO3_HOPG_5mM_100mv_1_cv.DTA
EXPLAIN
TAG	CV
TITLE	LABEL	Cyclic Voltammetry	Test &Identifier
DATE	LABEL	30/4/2022	Date
TIME	LABEL	14:19:18	Time
NOTES	NOTES	2	&Notes...
	30/04/22 , 5mM  AgNO3

PSTAT	PSTAT	IFC1000-09004	Potentiostat
VINIT	POTEN	1,00000E-001	F	Initial &E (V)
VLIMIT1	POTEN	1,00000E-001	F	Scan Limit &1 (V)
VLIMIT2	POTEN	8,00000E-001	F	Scan Limit &2 (V)
VFINAL	POTEN	1,00000E-001	F	Final &E (V)
SCANRATE	QUANT	9,99998E+001	&Scan Rate (mV/s)
STEPSIZE	QUANT	1,00000E+000	St&ep Size (mV)
CYCLES	IQUANT	1	C&ycles (#)
IMODE	SELECTOR	0	I/E Range &Mode
IRANGE	QUANT	1,00000E-005	&Max Current (mA)
AREA	QUANT	1,00000E+000	Electrode &Area (cm^2)
ELECTRODETYPE	SELECTOR	0	Electrode Type
STRIPPING	TOGGLE	F	Used for Stripping
POLARITY	TOGGLE	F	Signal Polarity
CONDIT	TWOPARAM	F	1,50000E+001	0,00000E+000	Conditionin&g	Time(s)	E(V)
DELAY	TWOPARAM	F	3,00000E+001	0,00000E+000	Init. De&lay	Time(s)	Stab.(mV/s)
EQDELAY	QUANT	1,00000E+001	Equil. &Time (s)
IRCOMP	SELECTOR	0	IRCom&p
PFCOR	QUANT	5,00000E+001	PF Corr. (ohm)
SAMPLINGMODE	SELECTOR	1	Sampling &Mode
EOC	QUANT	0	Open Circuit (V)
PSTATMODEL	IQUANT	48	Pstat Model
PSTATSECTION	LABEL	IFC1000-09004	Pstat Section
PSTATSERIALNO	LABEL	09004	Pstat Serial Number
CTRLMODE	IQUANT	1	Control Mode
ELECTROMETER	IQUANT	0	RE=0 or CS=1
IESTAB	IQUANT	2	I/E Stability
CASPEED	IQUANT	4	Control Amp Speed
CONVENTION	IQUANT	1	Current Convention
ICHRANGE	IQUANT	2	Ich Range
ICHRANGEMODE	TOGGLE	F	Ich Auto Range
ICHOFFSETENABLE	TOGGLE	F	Ich Offset Enable
ICHOFFSET	QUANT	0	Ich Offset (V)
ICHFILTER	IQUANT	3	Ich Filter
VCHRANGE	IQUANT	2	Vch Range
VCHRANGEMODE	TOGGLE	F	Vch Auto Range
VCHOFFSETENABLE	TOGGLE	F	Vch Offset Enable
VCHOFFSET	QUANT	0	Vch Offset (V)
VCHFILTER	IQUANT	3	Vch Filter
IERANGELOWERLIMIT	IQUANT	4	I/E Range Lower Limit
IERANGEMODE	TOGGLE	T	I/E AutoRange
IERANGE	IQUANT	5	I/E Range
ACHSELECT	IQUANT	0	Ach Select
ACHRANGE	IQUANT	2	Ach Range
ACHOFFSETENABLE	TOGGLE	F	Ach Offset Enable
ACHOFFSET	QUANT	0	Ach Offset (V)
ACHFILTER	IQUANT	1	Ach Filter
CABLEID	IQUANT	14	Cable ID
DCCALDATE	LABEL	3/18/2022	DC Calibration Date
ACCALDATE	LABEL	3/10/2016	AC Calibration Date
FRAMEWORKVERSION	QUANT	7,05	Framework Version
INSTRUMENTVERSION	LABEL	4.21	Instrument Version
CURVE1	TABLE
	Pt	T	Vf	Im	Vu	Sig	Ach	IERange	Over	Temp
	#	s	V vs. Ref.	A	V	V	V	#	bits	deg C
	0	0,01	9,98536E-002	-5,11054E-005	0,00000E+000	1,00006E-001	0,00000E+000	8	...........	-32768,00
	14	0,15	1,13827E-001	-4,27810E-005	0,00000E+000	1,13995E-001	0,00000E+000	8	...........	-32768,00
	28	0,29	1,27837E-001	-3,75954E-005	0,00000E+000	1,27996E-001	0,00000E+000	8	...........	-32768,00
	42	0,43	1,41862E-001	-3,33723E-005	0,00000E+000	1,41997E-001	0,00000E+000	8	...........	-32768,00
	56	0,57	1,55859E-001	-2,97578E-005	0,00000E+000	1,55998E-001	0,00000E+000	8	...........	-32768,00
	70	0,71	1,69861E-001	-2,65894E-005	0,00000E+000	1,69999E-001	0,00000E+000	8	...........	-32768,00
	84	0,85	1,83875E-001	-2,37817E-005	0,00000E+000	1,84000E-001	0,00000E+000	8	...........	-32768,00
	98	0,99	1,97856E-001	-2,11573E-005	0,00000E+000	1,98002E-001	0,00000E+000	8	...........	-32768,00
	112	1,13	2,11860E-001	-1,86876E-005	0,00000E+000	2,12003E-001	0,00000E+000	8	...........	-32768,00
	126	1,27	2,25862E-001	-1,62438E-005	0,00000E+000	2,26004E-001	0,00000E+000	8	...........	-32768,00
	140	1,41	2,39862E-001	-1,39457E-005	0,00000E+000	2,40005E-001	0,00000E+000	8	...........	-32768,00
	154	1,55	2,53866E-001	-1,16720E-005	0,00000E+000	2,54006E-001	0,00000E+000	8	...........	-32768,00
	168	1,69	2,67852E-001	-9,46373E-006	0,00000E+000	2,67995E-001	0,00000E+000	8	...........	-32768,00
	182	1,83	2,81860E-001	-7,21720E-006	0,00000E+000	2,81996E-001	0,00000E+000	8	...........	-32768,00
	196	1,97	2,95879E-001	-4,91602E-006	0,00000E+000	2,95997E-001	0,00000E+000	8	...........	-32768,00
	210	2,11	3,09859E-001	-2,50362E-006	0,00000E+000	3,09998E-001	0,00000E+000	8	...........	-32768,00
	224	2,25	3,23888E-001	1,40102E-007	0,00000E+000	3,23999E-001	0,00000E+000	8	...........	-32768,00
	238	2,39	3,37866E-001	3,01210E-006	0,00000E+000	3,38000E-001	0,00000E+000	8	...........	-32768,00
	252	2,53	3,51853E-001	6,20638E-006	0,00000E+000	3,52001E-001	0,00000E+000	8	...........	-32768,00
	266	2,67	3,65873E-001	9,86721E-006	0,00000E+000	3,66003E-001	0,00000E+000	8	...........	-32768,00
	280	2,81	3,79884E-001	1,41509E-005	0,00000E+000	3,80004E-001	0,00000E+000	8	...........	-32768,00
	294	2,95	3,93867E-001	1,94054E-005	0,00000E+000	3,94005E-001	0,00000E+000	8	...........	-32768,00
	308	3,09	4,07866E-001	2,56445E-005	0,00000E+000	4,08006E-001	0,00000E+000	8	...........	-32768,00
	322	3,23	4,21851E-001	3,26489E-005	0,00000E+000	4,21995E-001	0,00000E+000	8	...........	-32768,00
	336	3,37	4,35876E-001	3,96797E-005	0,00000E+000	4,35996E-001	0,00000E+000	8	...........	-32768,00
	350	3,51	4,49876E-001	4,64678E-005	0,00000E+000	4,49997E-001	0,00000E+000	8	...........	-32768,00
	364	3,65	4,63878E-001	5,32829E-005	0,00000E+000	4,63998E-001	0,00000E+000	8	...........	-32768,00
	378	3,79	4,77892E-001	6,02574E-005	0,00000E+000	4,77999E-001	0,00000E+000	8	...........	-32768,00
	392	3,93	4,91884E-001	6,79182E-005	0,00000E+000	4,92000E-001	0,00000E+000	8	...........	-32768,00
	406	4,07	5,05878E-001	7,68842E-005	0,00000E+000	5,06001E-001	0,00000E+000	8	...........	-32768,00
	420	4,21	5,19888E-001	8,77068E-005	0,00000E+000	5,20002E-001	0,00000E+000	8	...........	-32768,00
	434	4,35	5,33890E-001	1,01206E-004	0,00000E+000	5,34003E-001	0,00000E+000	9	...........	-32768,00
	448	4,49	5,47895E-001	1,17961E-004	0,00000E+000	5,48005E-001	0,00000E+000	9	...........	-32768,00
	462	4,63	5,61884E-001	1,38339E-004	0,00000E+000	5,62006E-001	0,00000E+000	9	...........	-32768,00
	476	4,77	5,75870E-001	1,62401E-004	0,00000E+000	5,75994E-001	0,00000E+000	9	...........	-32768,00
	490	4,91	5,89900E-001	1,90195E-004	0,00000E+000	5,89996E-001	0,00000E+000	9	...........	-32768,00
	504	5,05	6,03907E-001	2,22497E-004	0,00000E+000	6,03997E-001	0,00000E+000	9	...........	-32768,00
	518	5,19	6,17909E-001	2,62213E-004	0,00000E+000	6,17998E-001	0,00000E+000	9	...........	-32768,00
	532	5,33	6,31897E-001	3,08766E-004	0,00000E+000	6,31999E-001	0,00000E+000	9	...........	-32768,00
	546	5,47	6,45906E-001	3,60584E-004	0,00000E+000	6,46000E-001	0,00000E+000	9	...........	-32768,00
	560	5,61	6,59897E-001	4,16140E-004	0,00000E+000	6,60001E-001	0,00000E+000	9	...........	-32768,00
	574	5,75	6,73911E-001	4,74585E-004	0,00000E+000	6,74002E-001	0,00000E+000	9	...........	-32768,00
	588	5,89	6,87906E-001	5,32465E-004	0,00000E+000	6,88003E-001	0,00000E+000	9	...........	-32768,00
	602	6,03	7,01919E-001	5,82564E-004	0,00000E+000	7,02004E-001	0,00000E+000	9	...........	-32768,00
	616	6,17	7,15918E-001	6,10806E-004	0,00000E+000	7,16006E-001	0,00000E+000	9	...........	-32768,00
	630	6,31	7,29918E-001	6,12089E-004	0,00000E+000	7,29994E-001	0,00000E+000	9	...........	-32768,00
	644	6,45	7,43958E-001	5,82912E-004	0,00000E+000	7,43995E-001	0,00000E+000	9	...........	-32768,00
	658	6,59	7,57956E-001	5,26753E-004	0,00000E+000	7,57996E-001	0,00000E+000	9	...........	-32768,00
	672	6,73	7,71942E-001	4,29775E-004	0,00000E+000	7,71998E-001	0,00000E+000	9	...........	-32768,00
	686	6,87	7,85951E-001	3,56894E-004	0,00000E+000	7,85999E-001	0,00000E+000	9	...........	-32768,00
	700	7,01	7,99950E-001	3,18714E-004	0,00000E+000	8,00000E-001	0,00000E+000	9	...........	-32768,00
	714	7,15	7,85954E-001	2,58078E-004	0,00000E+000	7,85999E-001	0,00000E+000	9	...........	-32768,00
	728	7,29	7,71939E-001	2,17625E-004	0,00000E+000	7,71998E-001	0,00000E+000	9	...........	-32768,00
	742	7,43	7,57947E-001	1,88514E-004	0,00000E+000	7,57996E-001	0,00000E+000	9	...........	-32768,00
	756	7,57	7,43942E-001	1,65622E-004	0,00000E+000	7,43995E-001	0,00000E+000	9	...........	-32768,00
	770	7,71	7,29910E-001	1,47553E-004	0,00000E+000	7,29994E-001	0,00000E+000	9	...........	-32768,00
	784	7,85	7,15914E-001	1,32552E-004	0,00000E+000	7,16006E-001	0,00000E+000	9	...........	-32768,00
	798	7,99	7,01915E-001	1,20041E-004	0,00000E+000	7,02004E-001	0,00000E+000	9	...........	-32768,00
	812	8,13	6,87907E-001	1,09196E-004	0,00000E+000	6,88003E-001	0,00000E+000	9	...........	-32768,00
	826	8,27	6,73907E-001	9,93049E-005	0,00000E+000	6,74002E-001	0,00000E+000	9	...........	-32768,00
	840	8,41	6,59899E-001	9,02491E-005	0,00000E+000	6,60001E-001	0,00000E+000	9	...........	-32768,00
	854	8,55	6,45909E-001	8,18419E-005	0,00000E+000	6,46000E-001	0,00000E+000	9	...........	-32768,00
	868	8,69	6,31901E-001	7,40674E-005	0,00000E+000	6,31999E-001	0,00000E+000	8	...........	-32768,00
	882	8,83	6,17890E-001	6,71933E-005	0,00000E+000	6,17998E-001	0,00000E+000	8	...........	-32768,00
	896	8,97	6,03899E-001	6,16898E-005	0,00000E+000	6,03997E-001	0,00000E+000	8	...........	-32768,00
	910	9,11	5,89898E-001	5,72247E-005	0,00000E+000	5,89996E-001	0,00000E+000	8	...........	-32768,00
	924	9,25	5,75864E-001	5,31579E-005	0,00000E+000	5,75994E-001	0,00000E+000	8	...........	-32768,00
	938	9,39	5,61876E-001	4,92560E-005	0,00000E+000	5,62006E-001	0,00000E+000	8	...........	-32768,00
	952	9,53	5,47880E-001	4,53150E-005	0,00000E+000	5,48005E-001	0,00000E+000	8	...........	-32768,00
	966	9,67	5,33876E-001	4,12109E-005	0,00000E+000	5,34003E-001	0,00000E+000	8	...........	-32768,00
	980	9,81	5,19888E-001	3,67147E-005	0,00000E+000	5,20002E-001	0,00000E+000	8	...........	-32768,00
	994	9,95	5,05883E-001	3,19689E-005	0,00000E+000	5,06001E-001	0,00000E+000	8	...........	-32768,00
	1008	10,09	4,91887E-001	2,68004E-005	0,00000E+000	4,92000E-001	0,00000E+000	8	...........	-32768,00
	1022	10,23	4,77875E-001	1,97710E-005	0,00000E+000	4,77999E-001	0,00000E+000	8	...........	-32768,00
	1036	10,37	4,63881E-001	4,92466E-007	0,00000E+000	4,63998E-001	0,00000E+000	8	...........	-32768,00
	1050	10,51	4,49889E-001	-4,58462E-005	0,00000E+000	4,49997E-001	0,00000E+000	8	...........	-32768,00
	1064	10,65	4,35876E-001	-1,09093E-004	0,00000E+000	4,35996E-001	0,00000E+000	9	...........	-32768,00
	1078	10,79	4,21859E-001	-1,63038E-004	0,00000E+000	4,21995E-001	0,00000E+000	9	...........	-32768,00
	1092	10,93	4,07885E-001	-1,99019E-004	0,00000E+000	4,08006E-001	0,00000E+000	9	...........	-32768,00
	1106	11,07	3,93873E-001	-2,20072E-004	0,00000E+000	3,94005E-001	0,00000E+000	9	...........	-32768,00
	1120	11,21	3,79874E-001	-2,29913E-004	0,00000E+000	3,80004E-001	0,00000E+000	9	...........	-32768,00
	1134	11,35	3,65872E-001	-2,30551E-004	0,00000E+000	3,66003E-001	0,00000E+000	9	...........	-32768,00
	1148	11,49	3,51846E-001	-2,24023E-004	0,00000E+000	3,52001E-001	0,00000E+000	9	...........	-32768,00
	1162	11,63	3,37863E-001	-2,12018E-004	0,00000E+000	3,38000E-001	0,00000E+000	9	...........	-32768,00
	1176	11,77	3,23874E-001	-1,96989E-004	0,00000E+000	3,23999E-001	0,00000E+000	9	...........	-32768,00
	1190	11,91	3,09867E-001	-1,81259E-004	0,00000E+000	3,09998E-001	0,00000E+000	9	...........	-32768,00
	1204	12,05	2,95875E-001	-1,66668E-004	0,00000E+000	2,95997E-001	0,00000E+000	9	...........	-32768,00
	1218	12,19	2,81858E-001	-1,54271E-004	0,00000E+000	2,81996E-001	0,00000E+000	9	...........	-32768,00
	1232	12,33	2,67843E-001	-1,44079E-004	0,00000E+000	2,67995E-001	0,00000E+000	9	...........	-32768,00
	1246	12,47	2,53849E-001	-1,36098E-004	0,00000E+000	2,54006E-001	0,00000E+000	9	...........	-32768,00
	1260	12,61	2,39851E-001	-1,29781E-004	0,00000E+000	2,40005E-001	0,00000E+000	9	...........	-32768,00
	1274	12,75	2,25841E-001	-1,24948E-004	0,00000E+000	2,26004E-001	0,00000E+000	9	...........	-32768,00
	1288	12,89	2,11838E-001	-1,21337E-004	0,00000E+000	2,12003E-001	0,00000E+000	9	...........	-32768,00
	1302	13,03	1,97852E-001	-1,18466E-004	0,00000E+000	1,98002E-001	0,00000E+000	9	...........	-32768,00
	1316	13,17	1,83867E-001	-1,16597E-004	0,00000E+000	1,84000E-001	0,00000E+000	9	...........	-32768,00
	1330	13,31	1,69852E-001	-1,15562E-004	0,00000E+000	1,69999E-001	0,00000E+000	9	...........	-32768,00
	1344	13,45	1,55853E-001	-1,15398E-004	0,00000E+000	1,55998E-001	0,00000E+000	9	...........	-32768,00
	1358	13,59	1,41839E-001	-1,15979E-004	0,00000E+000	1,41997E-001	0,00000E+000	9	...........	-32768,00
	1372	13,73	1,27833E-001	-1,17155E-004	0,00000E+000	1,27996E-001	0,00000E+000	9	...........	-32768,00
	1386	13,87	1,13828E-001	-1,18921E-004	0,00000E+000	1,13995E-001	0,00000E+000	9	...........	-32768,00
	1400	14,01	9,98469E-002	-1,20958E-004	0,00000E+000	1,00006E-001	0,00000E+000	9	...........	-32768,00