File: HOPG_cv/1mM/AgNO3_HOPG_1mM_4_50mv_cv.DTA
EXPLAIN
TAG	CV
TITLE	LABEL	Cyclic Voltammetry	Test &Identifier
DATE	LABEL	7/4/2022	Date
TIME	LABEL	20:04:13	Time
NOTES	NOTES	2	&Notes...
	07/04/22 , 1mM  AgNO3

PSTAT	PSTAT	IFC1000-09004	Potentiostat
VINIT	POTEN	1,00000E-001	F	Initial &E (V)
VLIMIT1	POTEN	1,00000E-001	F	Scan Limit &1 (V)
VLIMIT2	POTEN	8,00000E-001	F	Scan Limit &2 (V)
VFINAL	POTEN	1,00000E-001	F	Final &E (V)
SCANRATE	QUANT	4,99999E+001	&Scan Rate (mV/s)
STEPSIZE	QUANT	1,00000E+000	St&ep Size (mV)
CYCLES	IQUANT	1	C&ycles (#)
IMODE	SELECTOR	0	I/E Range &Mode
IRANGE	QUANT	1,00000E-005	&Max Current (mA)
AREA	QUANT	1,00000E+000	Electrode &Area (cm^2)
ELECTRODETYPE	SELECTOR	0	Electrode Type
STRIPPING	TOGGLE	F	Used for Stripping
POLARITY	TOGGLE	F	Signal Polarity
CONDIT	TWOPARAM	F	1,50000E+001	0,00000E+000	Conditionin&g	Time(s)	E(V)
DELAY	TWOPARAM	F	3,00000E+001	0,00000E+000	Init. De&lay	Time(s)	Stab.(mV/s)
EQDELAY	QUANT	1,00000E+001	Equil. &Time (s)
IRCOMP	SELECTOR	0	IRCom&p
PFCOR	QUANT	5,00000E+001	PF Corr. (ohm)
SAMPLINGMODE	SELECTOR	0	Sampling &Mode
EOC	QUANT	0	Open Circuit (V)
PSTATMODEL	IQUANT	48	Pstat Model
PSTATSECTION	LABEL	IFC1000-09004	Pstat Section
PSTATSERIALNO	LABEL	09004	Pstat Serial Number
CTRLMODE	IQUANT	1	Control Mode
ELECTROMETER	IQUANT	0	RE=0 or CS=1
IESTAB	IQUANT	2	I/E Stability
CASPEED	IQUANT	4	Control Amp Speed
CONVENTION	IQUANT	1	Current Convention
ICHRANGE	IQUANT	2	Ich Range
ICHRANGEMODE	TOGGLE	F	Ich Auto Range
ICHOFFSETENABLE	TOGGLE	F	Ich Offset Enable
ICHOFFSET	QUANT	0	Ich Offset (V)
ICHFILTER	IQUANT	3	Ich Filter
VCHRANGE	IQUANT	2	Vch Range
VCHRANGEMODE	TOGGLE	F	Vch Auto Range
VCHOFFSETENABLE	TOGGLE	F	Vch Offset Enable
VCHOFFSET	QUANT	0	Vch Offset (V)
VCHFILTER	IQUANT	3	Vch Filter
IERANGELOWERLIMIT	IQUANT	4	I/E Range Lower Limit
IERANGEMODE	TOGGLE	T	I/E AutoRange
IERANGE	IQUANT	5	I/E Range
ACHSELECT	IQUANT	0	Ach Select
ACHRANGE	IQUANT	2	Ach Range
ACHOFFSETENABLE	TOGGLE	F	Ach Offset Enable
ACHOFFSET	QUANT	0	Ach Offset (V)
ACHFILTER	IQUANT	1	Ach Filter
CABLEID	IQUANT	14	Cable ID
DCCALDATE	LABEL	3/18/2022	DC Calibration Date
ACCALDATE	LABEL	3/10/2016	AC Calibration Date
FRAMEWORKVERSION	QUANT	7,05	Framework Version
INSTRUMENTVERSION	LABEL	4.21	Instrument Version
CURVE1	TABLE
	Pt	T	Vf	Im	Vu	Sig	Ach	IERange	Over	Temp
	#	s	V vs. Ref.	A	V	V	V	#	bits	deg C
	0	0,02	9,98969E-002	-7,35728E-006	0,00000E+000	1,00006E-001	0,00000E+000	7	...........	-32768,00
	15	0,32	1,14811E-001	-6,86841E-006	0,00000E+000	1,14995E-001	0,00000E+000	7	...........	-32768,00
	30	0,62	1,29826E-001	-6,57234E-006	0,00000E+000	1,29996E-001	0,00000E+000	7	...........	-32768,00
	45	0,92	1,44840E-001	-6,32206E-006	0,00000E+000	1,44997E-001	0,00000E+000	7	...........	-32768,00
	60	1,22	1,59754E-001	-6,13994E-006	0,00000E+000	1,59999E-001	0,00000E+000	7	...........	-32768,00
	75	1,52	1,74769E-001	-5,98289E-006	0,00000E+000	1,75000E-001	0,00000E+000	7	...........	-32768,00
	90	1,82	1,89783E-001	-5,85056E-006	0,00000E+000	1,90001E-001	0,00000E+000	7	...........	-32768,00
	105	2,12	2,04798E-001	-5,74397E-006	0,00000E+000	2,05002E-001	0,00000E+000	7	...........	-32768,00
	120	2,42	2,19912E-001	-5,64740E-006	0,00000E+000	2,20003E-001	0,00000E+000	7	...........	-32768,00
	135	2,72	2,34827E-001	-5,54681E-006	0,00000E+000	2,35005E-001	0,00000E+000	7	...........	-32768,00
	150	3,02	2,49841E-001	-5,44824E-006	0,00000E+000	2,50006E-001	0,00000E+000	7	...........	-32768,00
	165	3,32	2,64855E-001	-5,38007E-006	0,00000E+000	2,64994E-001	0,00000E+000	7	...........	-32768,00
	180	3,62	2,79870E-001	-5,27247E-006	0,00000E+000	2,79996E-001	0,00000E+000	7	...........	-32768,00
	195	3,92	2,94784E-001	-5,14115E-006	0,00000E+000	2,94997E-001	0,00000E+000	7	...........	-32768,00
	210	4,22	3,09799E-001	-4,99011E-006	0,00000E+000	3,09998E-001	0,00000E+000	7	...........	-32768,00
	225	4,52	3,24713E-001	-4,78226E-006	0,00000E+000	3,24999E-001	0,00000E+000	7	...........	-32768,00
	240	4,82	3,39827E-001	-4,49957E-006	0,00000E+000	3,40000E-001	0,00000E+000	7	...........	-32768,00
	255	5,12	3,54842E-001	-4,08120E-006	0,00000E+000	3,55002E-001	0,00000E+000	7	...........	-32768,00
	270	5,42	3,69856E-001	-3,47604E-006	0,00000E+000	3,70003E-001	0,00000E+000	7	...........	-32768,00
	285	5,72	3,84871E-001	-2,61459E-006	0,00000E+000	3,85004E-001	0,00000E+000	7	...........	-32768,00
	300	6,02	3,99885E-001	-1,43668E-006	0,00000E+000	4,00005E-001	0,00000E+000	7	...........	-32768,00
	315	6,32	4,14799E-001	2,49183E-008	0,00000E+000	4,14994E-001	0,00000E+000	7	...........	-32768,00
	330	6,62	4,29814E-001	1,68902E-006	0,00000E+000	4,29995E-001	0,00000E+000	7	...........	-32768,00
	345	6,92	4,44828E-001	3,70332E-006	0,00000E+000	4,44996E-001	0,00000E+000	7	...........	-32768,00
	360	7,22	4,59843E-001	6,61884E-006	0,00000E+000	4,59998E-001	0,00000E+000	7	...........	-32768,00
	375	7,52	4,74857E-001	1,09729E-005	0,00000E+000	4,74999E-001	0,00000E+000	8	...........	-32768,00
	390	7,82	4,89872E-001	1,73203E-005	0,00000E+000	4,90000E-001	0,00000E+000	8	...........	-32768,00
	405	8,12	5,04886E-001	2,59962E-005	0,00000E+000	5,05001E-001	0,00000E+000	8	...........	-32768,00
	420	8,42	5,19901E-001	3,72110E-005	0,00000E+000	5,20002E-001	0,00000E+000	8	...........	-32768,00
	435	8,72	5,34815E-001	5,09882E-005	0,00000E+000	5,35004E-001	0,00000E+000	8	...........	-32768,00
	450	9,02	5,49929E-001	6,65694E-005	0,00000E+000	5,50005E-001	0,00000E+000	8	...........	-32768,00
	465	9,32	5,64844E-001	8,33265E-005	0,00000E+000	5,64994E-001	0,00000E+000	8	...........	-32768,00
	480	9,62	5,79758E-001	9,87586E-005	0,00000E+000	5,79995E-001	0,00000E+000	9	...........	-32768,00
	495	9,92	5,94872E-001	1,13279E-004	0,00000E+000	5,94996E-001	0,00000E+000	9	...........	-32768,00
	510	10,22	6,09887E-001	1,27199E-004	0,00000E+000	6,09997E-001	0,00000E+000	9	...........	-32768,00
	525	10,52	6,24901E-001	1,30437E-004	0,00000E+000	6,24998E-001	0,00000E+000	9	...........	-32768,00
	540	10,82	6,39916E-001	3,75351E-005	0,00000E+000	6,40000E-001	0,00000E+000	8	...........	-32768,00
	555	11,12	6,54930E-001	1,59840E-005	0,00000E+000	6,55001E-001	0,00000E+000	8	...........	-32768,00
	570	11,42	6,69845E-001	1,06254E-005	0,00000E+000	6,70002E-001	0,00000E+000	8	...........	-32768,00
	585	11,72	6,84959E-001	8,13660E-006	0,00000E+000	6,85003E-001	0,00000E+000	8	...........	-32768,00
	600	12,02	6,99873E-001	6,74782E-006	0,00000E+000	7,00004E-001	0,00000E+000	7	...........	-32768,00
	615	12,32	7,14788E-001	5,81486E-006	0,00000E+000	7,14993E-001	0,00000E+000	7	...........	-32768,00
	630	12,62	7,29902E-001	5,20368E-006	0,00000E+000	7,29994E-001	0,00000E+000	7	...........	-32768,00
	645	12,92	7,44917E-001	4,73620E-006	0,00000E+000	7,44995E-001	0,00000E+000	7	...........	-32768,00
	660	13,22	7,59831E-001	4,38767E-006	0,00000E+000	7,59997E-001	0,00000E+000	7	...........	-32768,00
	675	13,52	7,74945E-001	4,17916E-006	0,00000E+000	7,74998E-001	0,00000E+000	7	.....h.....	-32768,00
	690	13,82	7,89960E-001	3,93656E-006	0,00000E+000	7,89999E-001	0,00000E+000	7	...........	-32768,00
	705	14,12	7,94965E-001	3,49581E-006	0,00000E+000	7,94999E-001	0,00000E+000	7	...........	-32768,00
	720	14,42	7,79950E-001	2,87728E-006	0,00000E+000	7,79998E-001	0,00000E+000	7	...........	-32768,00
	735	14,72	7,64936E-001	2,48632E-006	0,00000E+000	7,64997E-001	0,00000E+000	7	...........	-32768,00
	750	15,02	7,49921E-001	2,04690E-006	0,00000E+000	7,49996E-001	0,00000E+000	7	...........	-32768,00
	765	15,32	7,34907E-001	1,80831E-006	0,00000E+000	7,34995E-001	0,00000E+000	7	...........	-32768,00
	780	15,62	7,19893E-001	1,58744E-006	0,00000E+000	7,19993E-001	0,00000E+000	7	...........	-32768,00
	795	15,92	7,04878E-001	1,41468E-006	0,00000E+000	7,05005E-001	0,00000E+000	7	...........	-32768,00
	810	16,22	6,89864E-001	1,24894E-006	0,00000E+000	6,90004E-001	0,00000E+000	7	...........	-32768,00
	825	16,52	6,74849E-001	1,11260E-006	0,00000E+000	6,75002E-001	0,00000E+000	7	...........	-32768,00
	840	16,82	6,59935E-001	9,89963E-007	0,00000E+000	6,60001E-001	0,00000E+000	7	...........	-32768,00
	855	17,12	6,44820E-001	8,73343E-007	0,00000E+000	6,45000E-001	0,00000E+000	7	...........	-32768,00
	870	17,42	6,29906E-001	8,30905E-007	0,00000E+000	6,29999E-001	0,00000E+000	7	...........	-32768,00
	885	17,72	6,14792E-001	6,86215E-007	0,00000E+000	6,14998E-001	0,00000E+000	7	...........	-32768,00
	900	18,02	5,99977E-001	6,30077E-007	0,00000E+000	5,99996E-001	0,00000E+000	7	...........	-32768,00
	915	18,32	5,84763E-001	4,77367E-007	0,00000E+000	5,84995E-001	0,00000E+000	7	...........	-32768,00
	930	18,62	5,69848E-001	4,56649E-007	0,00000E+000	5,69994E-001	0,00000E+000	7	...........	-32768,00
	945	18,92	5,54834E-001	2,37442E-007	0,00000E+000	5,55005E-001	0,00000E+000	7	...........	-32768,00
	960	19,22	5,39720E-001	9,87670E-008	0,00000E+000	5,40004E-001	0,00000E+000	7	...........	-32768,00
	975	19,52	5,24605E-001	2,30091E-007	0,00000E+000	5,25003E-001	0,00000E+000	7	...........	-32768,00
	990	19,82	5,09691E-001	-1,13757E-007	0,00000E+000	5,10002E-001	0,00000E+000	7	...........	-32768,00
	1005	20,12	4,94376E-001	4,06237E-008	0,00000E+000	4,95000E-001	0,00000E+000	7	...........	-32768,00
	1020	20,42	4,79762E-001	-2,09326E-007	0,00000E+000	4,79999E-001	0,00000E+000	7	...........	-32768,00
	1035	20,72	4,64547E-001	-1,26789E-007	0,00000E+000	4,64998E-001	0,00000E+000	7	...........	-32768,00
	1050	21,02	4,49933E-001	-6,63065E-008	0,00000E+000	4,49997E-001	0,00000E+000	7	...........	-32768,00
	1065	21,32	4,35619E-001	-2,78835E-006	0,00000E+000	4,34996E-001	0,00000E+000	7	...........	-32768,00
	1080	21,62	4,19604E-001	-1,48543E-005	0,00000E+000	4,19994E-001	0,00000E+000	8	...........	-32768,00
	1095	21,92	4,04790E-001	-3,08865E-005	0,00000E+000	4,05006E-001	0,00000E+000	8	...........	-32768,00
	1110	22,22	3,89876E-001	-4,16704E-005	0,00000E+000	3,90004E-001	0,00000E+000	8	...........	-32768,00
	1125	22,52	3,74761E-001	-4,35346E-005	0,00000E+000	3,75003E-001	0,00000E+000	8	...........	-32768,00
	1140	22,82	3,59847E-001	-4,07083E-005	0,00000E+000	3,60002E-001	0,00000E+000	8	...........	-32768,00
	1155	23,12	3,44732E-001	-3,67529E-005	0,00000E+000	3,45001E-001	0,00000E+000	8	...........	-32768,00
	1170	23,42	3,29818E-001	-3,30246E-005	0,00000E+000	3,30000E-001	0,00000E+000	8	...........	-32768,00
	1185	23,72	3,14803E-001	-2,97808E-005	0,00000E+000	3,14998E-001	0,00000E+000	8	...........	-32768,00
	1200	24,02	2,99789E-001	-2,69979E-005	0,00000E+000	2,99997E-001	0,00000E+000	8	...........	-32768,00
	1215	24,32	2,84775E-001	-2,45993E-005	0,00000E+000	2,84996E-001	0,00000E+000	8	...........	-32768,00
	1230	24,62	2,69760E-001	-2,25915E-005	0,00000E+000	2,69995E-001	0,00000E+000	8	...........	-32768,00
	1245	24,92	2,54846E-001	-2,09078E-005	0,00000E+000	2,54994E-001	0,00000E+000	8	...........	-32768,00
	1260	25,22	2,39731E-001	-1,94913E-005	0,00000E+000	2,40005E-001	0,00000E+000	8	...........	-32768,00
	1275	25,52	2,24717E-001	-1,83087E-005	0,00000E+000	2,25004E-001	0,00000E+000	8	...........	-32768,00
	1290	25,82	2,09803E-001	-1,72998E-005	0,00000E+000	2,10003E-001	0,00000E+000	8	...........	-32768,00
	1305	26,12	1,94788E-001	-1,64044E-005	0,00000E+000	1,95001E-001	0,00000E+000	8	...........	-32768,00
	1320	26,42	1,79874E-001	-1,56561E-005	0,00000E+000	1,80000E-001	0,00000E+000	8	...........	-32768,00
	1335	26,72	1,64759E-001	-1,49913E-005	0,00000E+000	1,64999E-001	0,00000E+000	8	...........	-32768,00
	1350	27,02	1,49745E-001	-1,43967E-005	0,00000E+000	1,49998E-001	0,00000E+000	8	...........	-32768,00
	1365	27,32	1,34730E-001	-1,39056E-005	0,00000E+000	1,34997E-001	0,00000E+000	8	...........	-32768,00
	1380	27,62	1,19816E-001	-1,35114E-005	0,00000E+000	1,19995E-001	0,00000E+000	8	...........	-32768,00
	1395	27,92	1,04802E-001	-1,31773E-005	0,00000E+000	1,04994E-001	0,00000E+000	8	...........	-32768,00
	1400	28,02	9,97968E-002	-1,30904E-005	0,00000E+000	1,00006E-001	0,00000E+000	8	...........	-32768,00