File: HOPG_cv/1mM/AgNO3_HOPG_1mM_4_70mv_cv.DTA
EXPLAIN
TAG	CV
TITLE	LABEL	Cyclic Voltammetry	Test &Identifier
DATE	LABEL	7/4/2022	Date
TIME	LABEL	20:08:32	Time
NOTES	NOTES	2	&Notes...
	07/04/22 , 1mM  AgNO3

PSTAT	PSTAT	IFC1000-09004	Potentiostat
VINIT	POTEN	1,00000E-001	F	Initial &E (V)
VLIMIT1	POTEN	1,00000E-001	F	Scan Limit &1 (V)
VLIMIT2	POTEN	8,00000E-001	F	Scan Limit &2 (V)
VFINAL	POTEN	1,00000E-001	F	Final &E (V)
SCANRATE	QUANT	7,00115E+001	&Scan Rate (mV/s)
STEPSIZE	QUANT	1,00000E+000	St&ep Size (mV)
CYCLES	IQUANT	1	C&ycles (#)
IMODE	SELECTOR	0	I/E Range &Mode
IRANGE	QUANT	1,00000E-005	&Max Current (mA)
AREA	QUANT	1,00000E+000	Electrode &Area (cm^2)
ELECTRODETYPE	SELECTOR	0	Electrode Type
STRIPPING	TOGGLE	F	Used for Stripping
POLARITY	TOGGLE	F	Signal Polarity
CONDIT	TWOPARAM	F	1,50000E+001	0,00000E+000	Conditionin&g	Time(s)	E(V)
DELAY	TWOPARAM	F	3,00000E+001	0,00000E+000	Init. De&lay	Time(s)	Stab.(mV/s)
EQDELAY	QUANT	1,00000E+001	Equil. &Time (s)
IRCOMP	SELECTOR	0	IRCom&p
PFCOR	QUANT	5,00000E+001	PF Corr. (ohm)
SAMPLINGMODE	SELECTOR	0	Sampling &Mode
EOC	QUANT	0	Open Circuit (V)
PSTATMODEL	IQUANT	48	Pstat Model
PSTATSECTION	LABEL	IFC1000-09004	Pstat Section
PSTATSERIALNO	LABEL	09004	Pstat Serial Number
CTRLMODE	IQUANT	1	Control Mode
ELECTROMETER	IQUANT	0	RE=0 or CS=1
IESTAB	IQUANT	2	I/E Stability
CASPEED	IQUANT	4	Control Amp Speed
CONVENTION	IQUANT	1	Current Convention
ICHRANGE	IQUANT	2	Ich Range
ICHRANGEMODE	TOGGLE	F	Ich Auto Range
ICHOFFSETENABLE	TOGGLE	F	Ich Offset Enable
ICHOFFSET	QUANT	0	Ich Offset (V)
ICHFILTER	IQUANT	3	Ich Filter
VCHRANGE	IQUANT	2	Vch Range
VCHRANGEMODE	TOGGLE	F	Vch Auto Range
VCHOFFSETENABLE	TOGGLE	F	Vch Offset Enable
VCHOFFSET	QUANT	0	Vch Offset (V)
VCHFILTER	IQUANT	3	Vch Filter
IERANGELOWERLIMIT	IQUANT	4	I/E Range Lower Limit
IERANGEMODE	TOGGLE	T	I/E AutoRange
IERANGE	IQUANT	5	I/E Range
ACHSELECT	IQUANT	0	Ach Select
ACHRANGE	IQUANT	2	Ach Range
ACHOFFSETENABLE	TOGGLE	F	Ach Offset Enable
ACHOFFSET	QUANT	0	Ach Offset (V)
ACHFILTER	IQUANT	1	Ach Filter
CABLEID	IQUANT	14	Cable ID
DCCALDATE	LABEL	3/18/2022	DC Calibration Date
ACCALDATE	LABEL	3/10/2016	AC Calibration Date
FRAMEWORKVERSION	QUANT	7,05	Framework Version
INSTRUMENTVERSION	LABEL	4.21	Instrument Version
CURVE1	TABLE
	Pt	T	Vf	Im	Vu	Sig	Ach	IERange	Over	Temp
	#	s	V vs. Ref.	A	V	V	V	#	bits	deg C
	0	0,014283	9,97968E-002	-7,18519E-006	0,00000E+000	1,00006E-001	0,00000E+000	7	...........	-32768,00
	15	0,228533	1,14811E-001	-6,65789E-006	0,00000E+000	1,14995E-001	0,00000E+000	7	...........	-32768,00
	30	0,442783	1,29826E-001	-6,34679E-006	0,00000E+000	1,29996E-001	0,00000E+000	7	...........	-32768,00
	45	0,657033	1,44740E-001	-6,12090E-006	0,00000E+000	1,44997E-001	0,00000E+000	7	...........	-32768,00
	60	0,871283	1,59754E-001	-5,93577E-006	0,00000E+000	1,59986E-001	0,00000E+000	7	...........	-32768,00
	75	1,08553	1,74869E-001	-5,79376E-006	0,00000E+000	1,74987E-001	0,00000E+000	7	...........	-32768,00
	90	1,29978	1,89783E-001	-5,68616E-006	0,00000E+000	1,89988E-001	0,00000E+000	7	...........	-32768,00
	105	1,51403	2,04698E-001	-5,55851E-006	0,00000E+000	2,04977E-001	0,00000E+000	7	...........	-32768,00
	120	1,72828	2,19812E-001	-5,45158E-006	0,00000E+000	2,19978E-001	0,00000E+000	7	...........	-32768,00
	135	1,94253	2,34827E-001	-5,35701E-006	0,00000E+000	2,34980E-001	0,00000E+000	7	...........	-32768,00
	150	2,15678	2,49741E-001	-5,27414E-006	0,00000E+000	2,49981E-001	0,00000E+000	7	...........	-32768,00
	165	2,37103	2,64755E-001	-5,19294E-006	0,00000E+000	2,64969E-001	0,00000E+000	7	...........	-32768,00
	180	2,58528	2,79670E-001	-5,09336E-006	0,00000E+000	2,79971E-001	0,00000E+000	7	...........	-32768,00
	195	2,79953	2,94784E-001	-4,95469E-006	0,00000E+000	2,94972E-001	0,00000E+000	7	...........	-32768,00
	210	3,01378	3,09799E-001	-4,78393E-006	0,00000E+000	3,09961E-001	0,00000E+000	7	...........	-32768,00
	225	3,22803	3,24713E-001	-4,54668E-006	0,00000E+000	3,24962E-001	0,00000E+000	7	...........	-32768,00
	240	3,44228	3,39827E-001	-4,18813E-006	0,00000E+000	3,39963E-001	0,00000E+000	7	...........	-32768,00
	255	3,65653	3,54842E-001	-3,68289E-006	0,00000E+000	3,54952E-001	0,00000E+000	7	...........	-32768,00
	270	3,87078	3,69756E-001	-2,96178E-006	0,00000E+000	3,69953E-001	0,00000E+000	7	...........	-32768,00
	285	4,08503	3,84771E-001	-1,97735E-006	0,00000E+000	3,84954E-001	0,00000E+000	7	...........	-32768,00
	300	4,29928	3,99685E-001	-7,33952E-007	0,00000E+000	3,99955E-001	0,00000E+000	7	...........	-32768,00
	315	4,51353	4,14699E-001	7,69754E-007	0,00000E+000	4,14944E-001	0,00000E+000	7	...........	-32768,00
	330	4,72778	4,29814E-001	2,57788E-006	0,00000E+000	4,29945E-001	0,00000E+000	7	...........	-32768,00
	345	4,94203	4,44728E-001	4,90161E-006	0,00000E+000	4,44946E-001	0,00000E+000	7	...........	-32768,00
	360	5,15628	4,59843E-001	8,11954E-006	0,00000E+000	4,59935E-001	0,00000E+000	7	...........	-32768,00
	375	5,37053	4,74857E-001	1,27334E-005	0,00000E+000	4,74936E-001	0,00000E+000	8	...........	-32768,00
	390	5,58478	4,89771E-001	1,92145E-005	0,00000E+000	4,89937E-001	0,00000E+000	8	...........	-32768,00
	405	5,79903	5,04786E-001	2,78803E-005	0,00000E+000	5,04939E-001	0,00000E+000	8	...........	-32768,00
	420	6,01328	5,19800E-001	3,88981E-005	0,00000E+000	5,19927E-001	0,00000E+000	8	...........	-32768,00
	435	6,22753	5,34815E-001	5,21541E-005	0,00000E+000	5,34929E-001	0,00000E+000	8	...........	-32768,00
	450	6,44178	5,49729E-001	6,74447E-005	0,00000E+000	5,49930E-001	0,00000E+000	8	...........	-32768,00
	465	6,65603	5,64944E-001	8,45225E-005	0,00000E+000	5,64918E-001	0,00000E+000	8	...........	-32768,00
	480	6,87028	5,79858E-001	1,02831E-004	0,00000E+000	5,79920E-001	0,00000E+000	9	...........	-32768,00
	495	7,08453	5,94772E-001	1,21391E-004	0,00000E+000	5,94921E-001	0,00000E+000	9	...........	-32768,00
	510	7,29878	6,09787E-001	1,40451E-004	0,00000E+000	6,09910E-001	0,00000E+000	9	...........	-32768,00
	525	7,51303	6,24801E-001	1,59211E-004	0,00000E+000	6,24911E-001	0,00000E+000	9	...........	-32768,00
	540	7,72728	6,39916E-001	1,68190E-004	0,00000E+000	6,39912E-001	0,00000E+000	9	...........	-32768,00
	555	7,94153	6,54830E-001	1,13546E-004	0,00000E+000	6,54913E-001	0,00000E+000	9	...........	-32768,00
	570	8,15578	6,69845E-001	2,96409E-005	0,00000E+000	6,69902E-001	0,00000E+000	8	...........	-32768,00
	585	8,37003	6,84759E-001	1,84027E-005	0,00000E+000	6,84903E-001	0,00000E+000	8	...........	-32768,00
	600	8,58428	6,99773E-001	1,38158E-005	0,00000E+000	6,99904E-001	0,00000E+000	8	...........	-32768,00
	615	8,79853	7,14888E-001	1,13036E-005	0,00000E+000	7,14893E-001	0,00000E+000	8	...........	-32768,00
	630	9,01278	7,29802E-001	9,76020E-006	0,00000E+000	7,29894E-001	0,00000E+000	8	...........	-32768,00
	645	9,22703	7,44917E-001	8,80140E-006	0,00000E+000	7,44895E-001	0,00000E+000	8	...........	-32768,00
	660	9,44128	7,59831E-001	8,00960E-006	0,00000E+000	7,59884E-001	0,00000E+000	7	...........	-32768,00
	675	9,6555	7,74845E-001	7,38907E-006	0,00000E+000	7,74885E-001	0,00000E+000	7	...........	-32768,00
	690	9,8698	7,89760E-001	6,94063E-006	0,00000E+000	7,89887E-001	0,00000E+000	7	...........	-32768,00
	705	10,084	7,94865E-001	6,18343E-006	0,00000E+000	7,94887E-001	0,00000E+000	7	...........	-32768,00
	720	10,2983	7,79850E-001	5,07503E-006	0,00000E+000	7,79886E-001	0,00000E+000	7	...........	-32768,00
	735	10,5125	7,64736E-001	4,28341E-006	0,00000E+000	7,64885E-001	0,00000E+000	7	...........	-32768,00
	750	10,7268	7,49821E-001	3,65720E-006	0,00000E+000	7,49896E-001	0,00000E+000	7	...........	-32768,00
	765	10,941	7,34807E-001	3,18805E-006	0,00000E+000	7,34895E-001	0,00000E+000	7	...........	-32768,00
	780	11,1553	7,19793E-001	2,80243E-006	0,00000E+000	7,19893E-001	0,00000E+000	7	...........	-32768,00
	795	11,3695	7,04778E-001	2,46994E-006	0,00000E+000	7,04905E-001	0,00000E+000	7	...........	-32768,00
	810	11,5838	6,89764E-001	2,16887E-006	0,00000E+000	6,89903E-001	0,00000E+000	7	...........	-32768,00
	825	11,798	6,74749E-001	1,92092E-006	0,00000E+000	6,74902E-001	0,00000E+000	7	...........	-32768,00
	840	12,0123	6,59835E-001	1,70272E-006	0,00000E+000	6,59901E-001	0,00000E+000	7	...........	-32768,00
	855	12,2265	6,44820E-001	1,49955E-006	0,00000E+000	6,44912E-001	0,00000E+000	7	...........	-32768,00
	870	12,4408	6,29806E-001	1,30574E-006	0,00000E+000	6,29911E-001	0,00000E+000	7	...........	-32768,00
	885	12,655	6,14792E-001	1,13031E-006	0,00000E+000	6,14910E-001	0,00000E+000	7	...........	-32768,00
	900	12,8693	5,99777E-001	9,31152E-007	0,00000E+000	5,99921E-001	0,00000E+000	7	...........	-32768,00
	915	13,0835	5,84863E-001	7,26314E-007	0,00000E+000	5,84920E-001	0,00000E+000	7	...........	-32768,00
	930	13,2978	5,69748E-001	4,87057E-007	0,00000E+000	5,69919E-001	0,00000E+000	7	...........	-32768,00
	945	13,512	5,54834E-001	2,75536E-007	0,00000E+000	5,54930E-001	0,00000E+000	7	...........	-32768,00
	960	13,7263	5,39720E-001	1,41873E-007	0,00000E+000	5,39929E-001	0,00000E+000	7	...........	-32768,00
	975	13,9405	5,24805E-001	6,06731E-008	0,00000E+000	5,24928E-001	0,00000E+000	7	...........	-32768,00
	990	14,1548	5,09791E-001	1,86148E-009	0,00000E+000	5,09927E-001	0,00000E+000	7	...........	-32768,00
	1005	14,369	4,94776E-001	-6,46358E-008	0,00000E+000	4,94938E-001	0,00000E+000	7	...........	-32768,00
	1020	14,5833	4,79862E-001	-1,64883E-007	0,00000E+000	4,79937E-001	0,00000E+000	7	...........	-32768,00
	1035	14,7975	4,64747E-001	-3,09239E-007	0,00000E+000	4,64935E-001	0,00000E+000	7	...........	-32768,00
	1050	15,0118	4,49833E-001	-5,27109E-007	0,00000E+000	4,49947E-001	0,00000E+000	7	...........	-32768,00
	1065	15,226	4,34719E-001	-3,14690E-006	0,00000E+000	4,34946E-001	0,00000E+000	7	...........	-32768,00
	1080	15,4403	4,19804E-001	-1,61305E-005	0,00000E+000	4,19944E-001	0,00000E+000	8	...........	-32768,00
	1095	15,6545	4,04790E-001	-3,69633E-005	0,00000E+000	4,04943E-001	0,00000E+000	8	...........	-32768,00
	1110	15,8688	3,89775E-001	-5,13920E-005	0,00000E+000	3,89954E-001	0,00000E+000	8	...........	-32768,00
	1125	16,083	3,74761E-001	-5,56948E-005	0,00000E+000	3,74953E-001	0,00000E+000	8	...........	-32768,00
	1140	16,2973	3,59847E-001	-5,36102E-005	0,00000E+000	3,59952E-001	0,00000E+000	8	...........	-32768,00
	1155	16,5115	3,44732E-001	-4,90935E-005	0,00000E+000	3,44963E-001	0,00000E+000	8	...........	-32768,00
	1170	16,7258	3,29918E-001	-4,43865E-005	0,00000E+000	3,29962E-001	0,00000E+000	8	...........	-32768,00
	1185	16,94	3,14803E-001	-4,00067E-005	0,00000E+000	3,14961E-001	0,00000E+000	8	...........	-32768,00
	1200	17,1543	2,99789E-001	-3,62885E-005	0,00000E+000	2,99972E-001	0,00000E+000	8	...........	-32768,00
	1215	17,3685	2,84775E-001	-3,29545E-005	0,00000E+000	2,84971E-001	0,00000E+000	8	...........	-32768,00
	1230	17,5828	2,69760E-001	-3,01416E-005	0,00000E+000	2,69970E-001	0,00000E+000	8	...........	-32768,00
	1245	17,797	2,54746E-001	-2,77797E-005	0,00000E+000	2,54969E-001	0,00000E+000	8	...........	-32768,00
	1260	18,0113	2,39831E-001	-2,57685E-005	0,00000E+000	2,39980E-001	0,00000E+000	8	...........	-32768,00
	1275	18,2255	2,24817E-001	-2,40915E-005	0,00000E+000	2,24979E-001	0,00000E+000	8	...........	-32768,00
	1290	18,4398	2,09803E-001	-2,26449E-005	0,00000E+000	2,09978E-001	0,00000E+000	8	...........	-32768,00
	1305	18,654	1,94788E-001	-2,14790E-005	0,00000E+000	1,94989E-001	0,00000E+000	8	...........	-32768,00
	1320	18,8683	1,79774E-001	-2,03799E-005	0,00000E+000	1,79988E-001	0,00000E+000	8	...........	-32768,00
	1335	19,0825	1,64759E-001	-1,94345E-005	0,00000E+000	1,64986E-001	0,00000E+000	8	...........	-32768,00
	1350	19,2968	1,49845E-001	-1,86160E-005	0,00000E+000	1,49998E-001	0,00000E+000	8	...........	-32768,00
	1365	19,511	1,34831E-001	-1,78978E-005	0,00000E+000	1,34997E-001	0,00000E+000	8	...........	-32768,00
	1380	19,7253	1,19816E-001	-1,72864E-005	0,00000E+000	1,19995E-001	0,00000E+000	8	...........	-32768,00
	1395	19,9395	1,04702E-001	-1,67786E-005	0,00000E+000	1,04994E-001	0,00000E+000	8	...........	-32768,00
	1400	20,011	9,96967E-002	-1,66249E-005	0,00000E+000	1,00006E-001	0,00000E+000	8	...........	-32768,00