File: HOPG_cv/1mM/AgNO3_HOPG_1mM_4_80mv_cv.DTA
EXPLAIN
TAG	CV
TITLE	LABEL	Cyclic Voltammetry	Test &Identifier
DATE	LABEL	7/4/2022	Date
TIME	LABEL	20:09:53	Time
NOTES	NOTES	2	&Notes...
	07/04/22 , 1mM  AgNO3

PSTAT	PSTAT	IFC1000-09004	Potentiostat
VINIT	POTEN	1,00000E-001	F	Initial &E (V)
VLIMIT1	POTEN	1,00000E-001	F	Scan Limit &1 (V)
VLIMIT2	POTEN	8,00000E-001	F	Scan Limit &2 (V)
VFINAL	POTEN	1,00000E-001	F	Final &E (V)
SCANRATE	QUANT	7,99998E+001	&Scan Rate (mV/s)
STEPSIZE	QUANT	1,00000E+000	St&ep Size (mV)
CYCLES	IQUANT	1	C&ycles (#)
IMODE	SELECTOR	0	I/E Range &Mode
IRANGE	QUANT	1,00000E-005	&Max Current (mA)
AREA	QUANT	1,00000E+000	Electrode &Area (cm^2)
ELECTRODETYPE	SELECTOR	0	Electrode Type
STRIPPING	TOGGLE	F	Used for Stripping
POLARITY	TOGGLE	F	Signal Polarity
CONDIT	TWOPARAM	F	1,50000E+001	0,00000E+000	Conditionin&g	Time(s)	E(V)
DELAY	TWOPARAM	F	3,00000E+001	0,00000E+000	Init. De&lay	Time(s)	Stab.(mV/s)
EQDELAY	QUANT	1,00000E+001	Equil. &Time (s)
IRCOMP	SELECTOR	0	IRCom&p
PFCOR	QUANT	5,00000E+001	PF Corr. (ohm)
SAMPLINGMODE	SELECTOR	0	Sampling &Mode
EOC	QUANT	0	Open Circuit (V)
PSTATMODEL	IQUANT	48	Pstat Model
PSTATSECTION	LABEL	IFC1000-09004	Pstat Section
PSTATSERIALNO	LABEL	09004	Pstat Serial Number
CTRLMODE	IQUANT	1	Control Mode
ELECTROMETER	IQUANT	0	RE=0 or CS=1
IESTAB	IQUANT	2	I/E Stability
CASPEED	IQUANT	4	Control Amp Speed
CONVENTION	IQUANT	1	Current Convention
ICHRANGE	IQUANT	2	Ich Range
ICHRANGEMODE	TOGGLE	F	Ich Auto Range
ICHOFFSETENABLE	TOGGLE	F	Ich Offset Enable
ICHOFFSET	QUANT	0	Ich Offset (V)
ICHFILTER	IQUANT	3	Ich Filter
VCHRANGE	IQUANT	2	Vch Range
VCHRANGEMODE	TOGGLE	F	Vch Auto Range
VCHOFFSETENABLE	TOGGLE	F	Vch Offset Enable
VCHOFFSET	QUANT	0	Vch Offset (V)
VCHFILTER	IQUANT	3	Vch Filter
IERANGELOWERLIMIT	IQUANT	4	I/E Range Lower Limit
IERANGEMODE	TOGGLE	T	I/E AutoRange
IERANGE	IQUANT	5	I/E Range
ACHSELECT	IQUANT	0	Ach Select
ACHRANGE	IQUANT	2	Ach Range
ACHOFFSETENABLE	TOGGLE	F	Ach Offset Enable
ACHOFFSET	QUANT	0	Ach Offset (V)
ACHFILTER	IQUANT	1	Ach Filter
CABLEID	IQUANT	14	Cable ID
DCCALDATE	LABEL	3/18/2022	DC Calibration Date
ACCALDATE	LABEL	3/10/2016	AC Calibration Date
FRAMEWORKVERSION	QUANT	7,05	Framework Version
INSTRUMENTVERSION	LABEL	4.21	Instrument Version
CURVE1	TABLE
	Pt	T	Vf	Im	Vu	Sig	Ach	IERange	Over	Temp
	#	s	V vs. Ref.	A	V	V	V	#	bits	deg C
	0	0,0125	9,97968E-002	-7,19738E-006	0,00000E+000	1,00006E-001	0,00000E+000	8	...........	-32768,00
	15	0,2	1,14811E-001	-6,65284E-006	0,00000E+000	1,14995E-001	0,00000E+000	8	...........	-32768,00
	30	0,3875	1,29826E-001	-6,31877E-006	0,00000E+000	1,29996E-001	0,00000E+000	8	...........	-32768,00
	45	0,575	1,44840E-001	-6,08491E-006	0,00000E+000	1,44997E-001	0,00000E+000	8	...........	-32768,00
	60	0,7625	1,59754E-001	-5,90117E-006	0,00000E+000	1,59999E-001	0,00000E+000	8	...........	-32768,00
	75	0,95	1,74769E-001	-5,76086E-006	0,00000E+000	1,75000E-001	0,00000E+000	8	...........	-32768,00
	90	1,1375	1,89783E-001	-5,62389E-006	0,00000E+000	1,90001E-001	0,00000E+000	8	...........	-32768,00
	105	1,325	2,04798E-001	-5,51699E-006	0,00000E+000	2,05002E-001	0,00000E+000	8	...........	-32768,00
	120	1,5125	2,19812E-001	-5,44015E-006	0,00000E+000	2,20003E-001	0,00000E+000	8	...........	-32768,00
	135	1,7	2,34827E-001	-5,34327E-006	0,00000E+000	2,35005E-001	0,00000E+000	8	...........	-32768,00
	150	1,8875	2,49741E-001	-5,24973E-006	0,00000E+000	2,50006E-001	0,00000E+000	8	...........	-32768,00
	165	2,075	2,64855E-001	-5,15285E-006	0,00000E+000	2,64994E-001	0,00000E+000	8	...........	-32768,00
	180	2,2625	2,79870E-001	-5,04595E-006	0,00000E+000	2,79996E-001	0,00000E+000	8	...........	-32768,00
	195	2,45	2,94784E-001	-4,91900E-006	0,00000E+000	2,94997E-001	0,00000E+000	8	...........	-32768,00
	210	2,6375	3,09799E-001	-4,71187E-006	0,00000E+000	3,09998E-001	0,00000E+000	8	...........	-32768,00
	225	2,825	3,24813E-001	-4,44461E-006	0,00000E+000	3,24999E-001	0,00000E+000	8	...........	-32768,00
	240	3,0125	3,39827E-001	-4,07379E-006	0,00000E+000	3,40000E-001	0,00000E+000	8	...........	-32768,00
	255	3,2	3,54742E-001	-3,52925E-006	0,00000E+000	3,55002E-001	0,00000E+000	8	...........	-32768,00
	270	3,3875	3,69756E-001	-2,74752E-006	0,00000E+000	3,70003E-001	0,00000E+000	8	...........	-32768,00
	285	3,575	3,84871E-001	-1,71189E-006	0,00000E+000	3,85004E-001	0,00000E+000	8	...........	-32768,00
	300	3,7625	3,99885E-001	-4,32389E-007	0,00000E+000	4,00005E-001	0,00000E+000	8	...........	-32768,00
	315	3,95	4,14900E-001	1,11771E-006	0,00000E+000	4,14994E-001	0,00000E+000	8	...........	-32768,00
	330	4,1375	4,29814E-001	3,00857E-006	0,00000E+000	4,29995E-001	0,00000E+000	8	...........	-32768,00
	345	4,325	4,44728E-001	5,46401E-006	0,00000E+000	4,44996E-001	0,00000E+000	8	...........	-32768,00
	360	4,5125	4,59843E-001	8,86822E-006	0,00000E+000	4,59998E-001	0,00000E+000	8	...........	-32768,00
	375	4,7	4,74757E-001	1,36388E-005	0,00000E+000	4,74999E-001	0,00000E+000	8	...........	-32768,00
	390	4,8875	4,89872E-001	2,02635E-005	0,00000E+000	4,90000E-001	0,00000E+000	8	...........	-32768,00
	405	5,075	5,04886E-001	2,89962E-005	0,00000E+000	5,05001E-001	0,00000E+000	8	...........	-32768,00
	420	5,2625	5,19800E-001	4,00607E-005	0,00000E+000	5,20002E-001	0,00000E+000	8	...........	-32768,00
	435	5,45	5,34815E-001	5,33768E-005	0,00000E+000	5,35004E-001	0,00000E+000	8	...........	-32768,00
	450	5,6375	5,49929E-001	6,87409E-005	0,00000E+000	5,50005E-001	0,00000E+000	8	...........	-32768,00
	465	5,825	5,64744E-001	8,58989E-005	0,00000E+000	5,65006E-001	0,00000E+000	8	...........	-32768,00
	480	6,0125	5,79858E-001	1,04500E-004	0,00000E+000	5,79995E-001	0,00000E+000	9	...........	-32768,00
	495	6,2	5,94872E-001	1,24061E-004	0,00000E+000	5,94996E-001	0,00000E+000	9	...........	-32768,00
	510	6,3875	6,09887E-001	1,43689E-004	0,00000E+000	6,09997E-001	0,00000E+000	9	...........	-32768,00
	525	6,575	6,24801E-001	1,62983E-004	0,00000E+000	6,24998E-001	0,00000E+000	9	...........	-32768,00
	540	6,7625	6,39816E-001	1,76001E-004	0,00000E+000	6,40000E-001	0,00000E+000	9	...........	-32768,00
	555	6,95	6,54930E-001	1,51066E-004	0,00000E+000	6,55001E-001	0,00000E+000	9	...........	-32768,00
	570	7,1375	6,69945E-001	4,21720E-005	0,00000E+000	6,70002E-001	0,00000E+000	8	...........	-32768,00
	585	7,325	6,84859E-001	2,38247E-005	0,00000E+000	6,85003E-001	0,00000E+000	8	...........	-32768,00
	600	7,5125	6,99973E-001	1,73136E-005	0,00000E+000	7,00004E-001	0,00000E+000	8	...........	-32768,00
	615	7,7	7,14888E-001	1,39628E-005	0,00000E+000	7,15006E-001	0,00000E+000	8	...........	-32768,00
	630	7,8875	7,29902E-001	1,19083E-005	0,00000E+000	7,29994E-001	0,00000E+000	8	...........	-32768,00
	645	8,075	7,45017E-001	1,05753E-005	0,00000E+000	7,44995E-001	0,00000E+000	8	...........	-32768,00
	660	8,2625	7,59931E-001	9,60652E-006	0,00000E+000	7,59997E-001	0,00000E+000	8	...........	-32768,00
	675	8,45	7,74945E-001	8,90831E-006	0,00000E+000	7,74998E-001	0,00000E+000	8	...........	-32768,00
	690	8,6375	7,90060E-001	8,38715E-006	0,00000E+000	7,89999E-001	0,00000E+000	8	...........	-32768,00
	705	8,825	7,94965E-001	7,49184E-006	0,00000E+000	7,94999E-001	0,00000E+000	8	...........	-32768,00
	720	9,0125	7,79950E-001	6,17893E-006	0,00000E+000	7,79998E-001	0,00000E+000	8	...........	-32768,00
	735	9,2	7,64936E-001	5,21346E-006	0,00000E+000	7,64997E-001	0,00000E+000	8	...........	-32768,00
	750	9,3875	7,49921E-001	4,47515E-006	0,00000E+000	7,49996E-001	0,00000E+000	8	...........	-32768,00
	765	9,575	7,34907E-001	3,88384E-006	0,00000E+000	7,34995E-001	0,00000E+000	8	...........	-32768,00
	780	9,7625	7,19893E-001	3,38941E-006	0,00000E+000	7,20006E-001	0,00000E+000	8	...........	-32768,00
	795	9,95	7,04878E-001	3,01525E-006	0,00000E+000	7,05005E-001	0,00000E+000	8	...........	-32768,00
	810	10,1375	6,89864E-001	2,65445E-006	0,00000E+000	6,90004E-001	0,00000E+000	8	...........	-32768,00
	825	10,325	6,74949E-001	2,32372E-006	0,00000E+000	6,75002E-001	0,00000E+000	8	...........	-32768,00
	840	10,5125	6,59935E-001	2,06314E-006	0,00000E+000	6,60001E-001	0,00000E+000	8	...........	-32768,00
	855	10,7	6,44921E-001	1,81593E-006	0,00000E+000	6,45000E-001	0,00000E+000	8	...........	-32768,00
	870	10,8875	6,29806E-001	1,55869E-006	0,00000E+000	6,29999E-001	0,00000E+000	8	...........	-32768,00
	885	11,075	6,14892E-001	1,33486E-006	0,00000E+000	6,14998E-001	0,00000E+000	8	...........	-32768,00
	900	11,2625	5,99877E-001	1,11437E-006	0,00000E+000	5,99996E-001	0,00000E+000	8	...........	-32768,00
	915	11,45	5,84863E-001	8,50453E-007	0,00000E+000	5,84995E-001	0,00000E+000	8	...........	-32768,00
	930	11,6375	5,69848E-001	5,63150E-007	0,00000E+000	5,69994E-001	0,00000E+000	8	...........	-32768,00
	945	11,825	5,54934E-001	3,05913E-007	0,00000E+000	5,55005E-001	0,00000E+000	8	...........	-32768,00
	960	12,0125	5,39820E-001	1,48899E-007	0,00000E+000	5,40004E-001	0,00000E+000	8	...........	-32768,00
	975	12,2	5,24905E-001	4,86768E-008	0,00000E+000	5,25003E-001	0,00000E+000	8	...........	-32768,00
	990	12,3875	5,09791E-001	-4,82046E-008	0,00000E+000	5,10002E-001	0,00000E+000	8	...........	-32768,00
	1005	12,575	4,94876E-001	-1,45086E-007	0,00000E+000	4,95000E-001	0,00000E+000	8	...........	-32768,00
	1020	12,7625	4,79762E-001	-2,38627E-007	0,00000E+000	4,79999E-001	0,00000E+000	8	...........	-32768,00
	1035	12,95	4,64747E-001	-4,05663E-007	0,00000E+000	4,64998E-001	0,00000E+000	8	...........	-32768,00
	1050	13,1375	4,49933E-001	-6,59559E-007	0,00000E+000	4,49997E-001	0,00000E+000	8	...........	-32768,00
	1065	13,325	4,34819E-001	-2,90787E-006	0,00000E+000	4,34996E-001	0,00000E+000	8	...........	-32768,00
	1080	13,5125	4,19804E-001	-1,57664E-005	0,00000E+000	4,19994E-001	0,00000E+000	8	...........	-32768,00
	1095	13,7	4,04890E-001	-3,79689E-005	0,00000E+000	4,05006E-001	0,00000E+000	8	...........	-32768,00
	1110	13,8875	3,89876E-001	-5,41247E-005	0,00000E+000	3,90004E-001	0,00000E+000	8	...........	-32768,00
	1125	14,075	3,74861E-001	-5,95668E-005	0,00000E+000	3,75003E-001	0,00000E+000	8	...........	-32768,00
	1140	14,2625	3,59847E-001	-5,79966E-005	0,00000E+000	3,60002E-001	0,00000E+000	8	...........	-32768,00
	1155	14,45	3,44832E-001	-5,34766E-005	0,00000E+000	3,45001E-001	0,00000E+000	8	...........	-32768,00
	1170	14,6375	3,29818E-001	-4,83385E-005	0,00000E+000	3,30000E-001	0,00000E+000	8	...........	-32768,00
	1185	14,825	3,14703E-001	-4,36649E-005	0,00000E+000	3,14998E-001	0,00000E+000	8	...........	-32768,00
	1200	15,0125	2,99789E-001	-3,95123E-005	0,00000E+000	2,99997E-001	0,00000E+000	8	...........	-32768,00
	1215	15,2	2,84775E-001	-3,59244E-005	0,00000E+000	2,84996E-001	0,00000E+000	8	...........	-32768,00
	1230	15,3875	2,69860E-001	-3,28743E-005	0,00000E+000	2,69995E-001	0,00000E+000	8	...........	-32768,00
	1245	15,575	2,54846E-001	-3,02618E-005	0,00000E+000	2,55006E-001	0,00000E+000	8	...........	-32768,00
	1260	15,7625	2,39831E-001	-2,80670E-005	0,00000E+000	2,40005E-001	0,00000E+000	8	...........	-32768,00
	1275	15,95	2,24717E-001	-2,61995E-005	0,00000E+000	2,25004E-001	0,00000E+000	8	...........	-32768,00
	1290	16,1375	2,09803E-001	-2,46126E-005	0,00000E+000	2,10003E-001	0,00000E+000	8	...........	-32768,00
	1305	16,325	1,94888E-001	-2,32530E-005	0,00000E+000	1,95001E-001	0,00000E+000	8	...........	-32768,00
	1320	16,5125	1,79774E-001	-2,20937E-005	0,00000E+000	1,80000E-001	0,00000E+000	8	...........	-32768,00
	1335	16,7	1,64759E-001	-2,10681E-005	0,00000E+000	1,64999E-001	0,00000E+000	8	...........	-32768,00
	1350	16,8875	1,49745E-001	-2,01661E-005	0,00000E+000	1,49998E-001	0,00000E+000	8	...........	-32768,00
	1365	17,075	1,34831E-001	-1,93844E-005	0,00000E+000	1,34997E-001	0,00000E+000	8	...........	-32768,00
	1380	17,2625	1,19716E-001	-1,86895E-005	0,00000E+000	1,19995E-001	0,00000E+000	8	...........	-32768,00
	1395	17,45	1,04702E-001	-1,81116E-005	0,00000E+000	1,04994E-001	0,00000E+000	8	...........	-32768,00
	1400	17,5125	9,96967E-002	-1,79378E-005	0,00000E+000	1,00006E-001	0,00000E+000	8	...........	-32768,00