File: HOPG_cv/1mM/AgNO3_HOPG_1mM_4_100mv_cv.DTA
EXPLAIN
TAG	CV
TITLE	LABEL	Cyclic Voltammetry	Test &Identifier
DATE	LABEL	7/4/2022	Date
TIME	LABEL	20:12:42	Time
NOTES	NOTES	2	&Notes...
	07/04/22 , 1mM  AgNO3

PSTAT	PSTAT	IFC1000-09004	Potentiostat
VINIT	POTEN	1,00000E-001	F	Initial &E (V)
VLIMIT1	POTEN	1,00000E-001	F	Scan Limit &1 (V)
VLIMIT2	POTEN	8,00000E-001	F	Scan Limit &2 (V)
VFINAL	POTEN	1,00000E-001	F	Final &E (V)
SCANRATE	QUANT	9,99998E+001	&Scan Rate (mV/s)
STEPSIZE	QUANT	1,00000E+000	St&ep Size (mV)
CYCLES	IQUANT	1	C&ycles (#)
IMODE	SELECTOR	0	I/E Range &Mode
IRANGE	QUANT	1,00000E-005	&Max Current (mA)
AREA	QUANT	1,00000E+000	Electrode &Area (cm^2)
ELECTRODETYPE	SELECTOR	0	Electrode Type
STRIPPING	TOGGLE	F	Used for Stripping
POLARITY	TOGGLE	F	Signal Polarity
CONDIT	TWOPARAM	F	1,50000E+001	0,00000E+000	Conditionin&g	Time(s)	E(V)
DELAY	TWOPARAM	F	3,00000E+001	0,00000E+000	Init. De&lay	Time(s)	Stab.(mV/s)
EQDELAY	QUANT	1,00000E+001	Equil. &Time (s)
IRCOMP	SELECTOR	0	IRCom&p
PFCOR	QUANT	5,00000E+001	PF Corr. (ohm)
SAMPLINGMODE	SELECTOR	0	Sampling &Mode
EOC	QUANT	0	Open Circuit (V)
PSTATMODEL	IQUANT	48	Pstat Model
PSTATSECTION	LABEL	IFC1000-09004	Pstat Section
PSTATSERIALNO	LABEL	09004	Pstat Serial Number
CTRLMODE	IQUANT	1	Control Mode
ELECTROMETER	IQUANT	0	RE=0 or CS=1
IESTAB	IQUANT	2	I/E Stability
CASPEED	IQUANT	4	Control Amp Speed
CONVENTION	IQUANT	1	Current Convention
ICHRANGE	IQUANT	2	Ich Range
ICHRANGEMODE	TOGGLE	F	Ich Auto Range
ICHOFFSETENABLE	TOGGLE	F	Ich Offset Enable
ICHOFFSET	QUANT	0	Ich Offset (V)
ICHFILTER	IQUANT	3	Ich Filter
VCHRANGE	IQUANT	2	Vch Range
VCHRANGEMODE	TOGGLE	F	Vch Auto Range
VCHOFFSETENABLE	TOGGLE	F	Vch Offset Enable
VCHOFFSET	QUANT	0	Vch Offset (V)
VCHFILTER	IQUANT	3	Vch Filter
IERANGELOWERLIMIT	IQUANT	4	I/E Range Lower Limit
IERANGEMODE	TOGGLE	T	I/E AutoRange
IERANGE	IQUANT	5	I/E Range
ACHSELECT	IQUANT	0	Ach Select
ACHRANGE	IQUANT	2	Ach Range
ACHOFFSETENABLE	TOGGLE	F	Ach Offset Enable
ACHOFFSET	QUANT	0	Ach Offset (V)
ACHFILTER	IQUANT	1	Ach Filter
CABLEID	IQUANT	14	Cable ID
DCCALDATE	LABEL	3/18/2022	DC Calibration Date
ACCALDATE	LABEL	3/10/2016	AC Calibration Date
FRAMEWORKVERSION	QUANT	7,05	Framework Version
INSTRUMENTVERSION	LABEL	4.21	Instrument Version
CURVE1	TABLE
	Pt	T	Vf	Im	Vu	Sig	Ach	IERange	Over	Temp
	#	s	V vs. Ref.	A	V	V	V	#	bits	deg C
	0	0,01	9,97968E-002	-7,18402E-006	0,00000E+000	1,00006E-001	0,00000E+000	8	...........	-32768,00
	14	0,15	1,13810E-001	-6,58937E-006	0,00000E+000	1,13995E-001	0,00000E+000	8	...........	-32768,00
	28	0,29	1,27724E-001	-6,27200E-006	0,00000E+000	1,27996E-001	0,00000E+000	8	...........	-32768,00
	42	0,43	1,41837E-001	-6,04149E-006	0,00000E+000	1,41997E-001	0,00000E+000	8	...........	-32768,00
	56	0,57	1,55751E-001	-5,85774E-006	0,00000E+000	1,55998E-001	0,00000E+000	8	...........	-32768,00
	70	0,71	1,69764E-001	-5,71409E-006	0,00000E+000	1,69999E-001	0,00000E+000	8	...........	-32768,00
	84	0,85	1,83778E-001	-5,59049E-006	0,00000E+000	1,84000E-001	0,00000E+000	8	...........	-32768,00
	98	0,99	1,97791E-001	-5,48692E-006	0,00000E+000	1,98002E-001	0,00000E+000	8	...........	-32768,00
	112	1,13	2,11804E-001	-5,39672E-006	0,00000E+000	2,12003E-001	0,00000E+000	8	...........	-32768,00
	126	1,27	2,25818E-001	-5,29650E-006	0,00000E+000	2,26004E-001	0,00000E+000	8	...........	-32768,00
	140	1,41	2,39831E-001	-5,21966E-006	0,00000E+000	2,40005E-001	0,00000E+000	8	...........	-32768,00
	154	1,55	2,53845E-001	-5,12946E-006	0,00000E+000	2,54006E-001	0,00000E+000	8	...........	-32768,00
	168	1,69	2,67758E-001	-5,01922E-006	0,00000E+000	2,67995E-001	0,00000E+000	8	...........	-32768,00
	182	1,83	2,81872E-001	-4,90563E-006	0,00000E+000	2,81996E-001	0,00000E+000	8	...........	-32768,00
	196	1,97	2,95885E-001	-4,74862E-006	0,00000E+000	2,95997E-001	0,00000E+000	8	...........	-32768,00
	210	2,11	3,09799E-001	-4,55820E-006	0,00000E+000	3,09998E-001	0,00000E+000	8	...........	-32768,00
	224	2,25	3,23812E-001	-4,26421E-006	0,00000E+000	3,23999E-001	0,00000E+000	8	...........	-32768,00
	238	2,39	3,37926E-001	-3,90341E-006	0,00000E+000	3,38000E-001	0,00000E+000	8	...........	-32768,00
	252	2,53	3,51839E-001	-3,35887E-006	0,00000E+000	3,52001E-001	0,00000E+000	8	...........	-32768,00
	266	2,67	3,65852E-001	-2,61389E-006	0,00000E+000	3,66003E-001	0,00000E+000	8	...........	-32768,00
	280	2,81	3,79866E-001	-1,64174E-006	0,00000E+000	3,80004E-001	0,00000E+000	8	...........	-32768,00
	294	2,95	3,93779E-001	-4,45752E-007	0,00000E+000	3,94005E-001	0,00000E+000	8	...........	-32768,00
	308	3,09	4,07793E-001	9,80742E-007	0,00000E+000	4,08006E-001	0,00000E+000	8	...........	-32768,00
	322	3,23	4,21806E-001	2,68452E-006	0,00000E+000	4,21995E-001	0,00000E+000	8	...........	-32768,00
	336	3,37	4,35820E-001	4,89274E-006	0,00000E+000	4,35996E-001	0,00000E+000	8	...........	-32768,00
	350	3,51	4,49833E-001	7,80587E-006	0,00000E+000	4,49997E-001	0,00000E+000	8	...........	-32768,00
	364	3,65	4,63847E-001	1,16878E-005	0,00000E+000	4,63998E-001	0,00000E+000	8	...........	-32768,00
	378	3,79	4,77860E-001	1,68893E-005	0,00000E+000	4,77999E-001	0,00000E+000	8	...........	-32768,00
	392	3,93	4,91874E-001	2,37378E-005	0,00000E+000	4,92000E-001	0,00000E+000	8	...........	-32768,00
	406	4,07	5,05887E-001	3,25006E-005	0,00000E+000	5,06001E-001	0,00000E+000	8	...........	-32768,00
	420	4,21	5,19901E-001	4,33346E-005	0,00000E+000	5,20002E-001	0,00000E+000	8	...........	-32768,00
	434	4,35	5,33914E-001	5,61296E-005	0,00000E+000	5,34003E-001	0,00000E+000	8	...........	-32768,00
	448	4,49	5,47927E-001	7,06484E-005	0,00000E+000	5,48005E-001	0,00000E+000	8	...........	-32768,00
	462	4,63	5,61941E-001	8,67475E-005	0,00000E+000	5,62006E-001	0,00000E+000	8	...........	-32768,00
	476	4,77	5,75854E-001	1,04166E-004	0,00000E+000	5,75994E-001	0,00000E+000	9	...........	-32768,00
	490	4,91	5,89868E-001	1,22826E-004	0,00000E+000	5,89996E-001	0,00000E+000	9	...........	-32768,00
	504	5,05	6,03881E-001	1,41986E-004	0,00000E+000	6,03997E-001	0,00000E+000	9	...........	-32768,00
	518	5,19	6,17895E-001	1,61113E-004	0,00000E+000	6,17998E-001	0,00000E+000	9	...........	-32768,00
	532	5,33	6,31908E-001	1,79439E-004	0,00000E+000	6,31999E-001	0,00000E+000	9	...........	-32768,00
	546	5,47	6,45922E-001	1,90655E-004	0,00000E+000	6,46000E-001	0,00000E+000	9	...........	-32768,00
	560	5,61	6,59935E-001	1,73397E-004	0,00000E+000	6,60001E-001	0,00000E+000	9	...........	-32768,00
	574	5,75	6,73948E-001	6,71540E-005	0,00000E+000	6,74002E-001	0,00000E+000	8	...........	-32768,00
	588	5,89	6,88062E-001	3,40908E-005	0,00000E+000	6,88003E-001	0,00000E+000	8	...........	-32768,00
	602	6,03	7,01975E-001	2,43325E-005	0,00000E+000	7,02004E-001	0,00000E+000	8	...........	-32768,00
	616	6,17	7,15889E-001	1,94650E-005	0,00000E+000	7,16006E-001	0,00000E+000	8	...........	-32768,00
	630	6,31	7,30002E-001	1,66154E-005	0,00000E+000	7,29994E-001	0,00000E+000	8	...........	-32768,00
	644	6,45	7,43916E-001	1,47212E-005	0,00000E+000	7,43995E-001	0,00000E+000	8	...........	-32768,00
	658	6,59	7,57829E-001	1,33682E-005	0,00000E+000	7,57996E-001	0,00000E+000	8	...........	-32768,00
	672	6,73	7,71943E-001	1,23960E-005	0,00000E+000	7,71998E-001	0,00000E+000	8	...........	-32768,00
	686	6,87	7,85956E-001	1,16644E-005	0,00000E+000	7,85999E-001	0,00000E+000	8	...........	-32768,00
	700	7,01	7,99970E-001	1,10998E-005	0,00000E+000	8,00000E-001	0,00000E+000	8	...........	-32768,00
	714	7,15	7,85956E-001	9,08871E-006	0,00000E+000	7,85999E-001	0,00000E+000	8	...........	-32768,00
	728	7,29	7,71943E-001	7,70230E-006	0,00000E+000	7,71998E-001	0,00000E+000	8	...........	-32768,00
	742	7,43	7,57929E-001	6,64329E-006	0,00000E+000	7,57996E-001	0,00000E+000	8	...........	-32768,00
	756	7,57	7,44016E-001	5,76134E-006	0,00000E+000	7,43995E-001	0,00000E+000	8	...........	-32768,00
	770	7,71	7,29902E-001	5,04308E-006	0,00000E+000	7,29994E-001	0,00000E+000	8	...........	-32768,00
	784	7,85	7,15889E-001	4,47515E-006	0,00000E+000	7,16006E-001	0,00000E+000	8	...........	-32768,00
	798	7,99	7,01975E-001	3,96068E-006	0,00000E+000	7,02004E-001	0,00000E+000	8	...........	-32768,00
	812	8,13	6,87962E-001	3,53641E-006	0,00000E+000	6,88003E-001	0,00000E+000	8	...........	-32768,00
	826	8,27	6,73948E-001	3,12884E-006	0,00000E+000	6,74002E-001	0,00000E+000	8	...........	-32768,00
	840	8,41	6,59835E-001	2,77138E-006	0,00000E+000	6,60001E-001	0,00000E+000	8	...........	-32768,00
	854	8,55	6,45721E-001	2,45067E-006	0,00000E+000	6,46000E-001	0,00000E+000	8	...........	-32768,00
	868	8,69	6,31808E-001	2,14332E-006	0,00000E+000	6,31999E-001	0,00000E+000	8	...........	-32768,00
	882	8,83	6,17795E-001	1,83263E-006	0,00000E+000	6,17998E-001	0,00000E+000	8	...........	-32768,00
	896	8,97	6,03881E-001	1,53530E-006	0,00000E+000	6,03997E-001	0,00000E+000	8	...........	-32768,00
	910	9,11	5,89968E-001	1,22128E-006	0,00000E+000	5,89996E-001	0,00000E+000	8	...........	-32768,00
	924	9,25	5,75954E-001	8,60476E-007	0,00000E+000	5,75994E-001	0,00000E+000	8	...........	-32768,00
	938	9,39	5,61841E-001	5,23061E-007	0,00000E+000	5,62006E-001	0,00000E+000	8	...........	-32768,00
	952	9,53	5,47827E-001	2,52462E-007	0,00000E+000	5,48005E-001	0,00000E+000	8	...........	-32768,00
	966	9,67	5,33914E-001	9,87878E-008	0,00000E+000	5,34003E-001	0,00000E+000	8	...........	-32768,00
	980	9,81	5,19800E-001	-3,48416E-008	0,00000E+000	5,20002E-001	0,00000E+000	8	...........	-32768,00
	994	9,95	5,05887E-001	-1,31723E-007	0,00000E+000	5,06001E-001	0,00000E+000	8	...........	-32768,00
	1008	10,09	4,91874E-001	-2,62012E-007	0,00000E+000	4,92000E-001	0,00000E+000	8	...........	-32768,00
	1022	10,23	4,77860E-001	-4,42411E-007	0,00000E+000	4,77999E-001	0,00000E+000	8	...........	-32768,00
	1036	10,37	4,63947E-001	-6,46196E-007	0,00000E+000	4,63998E-001	0,00000E+000	8	...........	-32768,00
	1050	10,51	4,49833E-001	-9,36840E-007	0,00000E+000	4,49997E-001	0,00000E+000	8	...........	-32768,00
	1064	10,65	4,35720E-001	-2,43683E-006	0,00000E+000	4,35996E-001	0,00000E+000	8	...........	-32768,00
	1078	10,79	4,21806E-001	-1,20749E-005	0,00000E+000	4,21995E-001	0,00000E+000	8	...........	-32768,00
	1092	10,93	4,07893E-001	-3,28876E-005	0,00000E+000	4,08006E-001	0,00000E+000	8	...........	-32768,00
	1106	11,07	3,93879E-001	-5,31726E-005	0,00000E+000	3,94005E-001	0,00000E+000	8	...........	-32768,00
	1120	11,21	3,79766E-001	-6,42705E-005	0,00000E+000	3,80004E-001	0,00000E+000	8	...........	-32768,00
	1134	11,35	3,65852E-001	-6,67961E-005	0,00000E+000	3,66003E-001	0,00000E+000	8	...........	-32768,00
	1148	11,49	3,51839E-001	-6,42271E-005	0,00000E+000	3,52001E-001	0,00000E+000	8	...........	-32768,00
	1162	11,63	3,37826E-001	-5,94799E-005	0,00000E+000	3,38000E-001	0,00000E+000	8	...........	-32768,00
	1176	11,77	3,23812E-001	-5,43352E-005	0,00000E+000	3,23999E-001	0,00000E+000	8	...........	-32768,00
	1190	11,91	3,09799E-001	-4,95145E-005	0,00000E+000	3,09998E-001	0,00000E+000	8	...........	-32768,00
	1204	12,05	2,95785E-001	-4,52283E-005	0,00000E+000	2,95997E-001	0,00000E+000	8	...........	-32768,00
	1218	12,19	2,81872E-001	-4,14666E-005	0,00000E+000	2,81996E-001	0,00000E+000	8	...........	-32768,00
	1232	12,33	2,67858E-001	-3,81593E-005	0,00000E+000	2,67995E-001	0,00000E+000	8	...........	-32768,00
	1246	12,47	2,53845E-001	-3,53063E-005	0,00000E+000	2,54006E-001	0,00000E+000	8	...........	-32768,00
	1260	12,61	2,39831E-001	-3,28175E-005	0,00000E+000	2,40005E-001	0,00000E+000	8	...........	-32768,00
	1274	12,75	2,25918E-001	-3,06661E-005	0,00000E+000	2,26004E-001	0,00000E+000	8	...........	-32768,00
	1288	12,89	2,11704E-001	-2,88621E-005	0,00000E+000	2,12003E-001	0,00000E+000	8	...........	-32768,00
	1302	13,03	1,97791E-001	-2,72852E-005	0,00000E+000	1,98002E-001	0,00000E+000	8	...........	-32768,00
	1316	13,17	1,83778E-001	-2,59255E-005	0,00000E+000	1,84000E-001	0,00000E+000	8	...........	-32768,00
	1330	13,31	1,69764E-001	-2,47463E-005	0,00000E+000	1,69999E-001	0,00000E+000	8	...........	-32768,00
	1344	13,45	1,55751E-001	-2,37006E-005	0,00000E+000	1,55998E-001	0,00000E+000	8	...........	-32768,00
	1358	13,59	1,41837E-001	-2,27652E-005	0,00000E+000	1,41997E-001	0,00000E+000	8	...........	-32768,00
	1372	13,73	1,27824E-001	-2,19400E-005	0,00000E+000	1,27996E-001	0,00000E+000	8	...........	-32768,00
	1386	13,87	1,13710E-001	-2,12084E-005	0,00000E+000	1,13995E-001	0,00000E+000	8	...........	-32768,00
	1400	14,01	9,97968E-002	-2,05436E-005	0,00000E+000	1,00006E-001	0,00000E+000	8	...........	-32768,00