File: HOPG_cv/1mM/AgNO3_HOPG_1mM_3_30mv_cv.DTA
EXPLAIN
TAG	CV
TITLE	LABEL	Cyclic Voltammetry	Test &Identifier
DATE	LABEL	7/4/2022	Date
TIME	LABEL	19:04:10	Time
NOTES	NOTES	2	&Notes...
	07/04/22 , 1mM  AgNO3

PSTAT	PSTAT	IFC1000-09004	Potentiostat
VINIT	POTEN	1,00000E-001	F	Initial &E (V)
VLIMIT1	POTEN	1,00000E-001	F	Scan Limit &1 (V)
VLIMIT2	POTEN	8,00000E-001	F	Scan Limit &2 (V)
VFINAL	POTEN	1,00000E-001	F	Final &E (V)
SCANRATE	QUANT	2,99999E+001	&Scan Rate (mV/s)
STEPSIZE	QUANT	1,00000E+000	St&ep Size (mV)
CYCLES	IQUANT	1	C&ycles (#)
IMODE	SELECTOR	0	I/E Range &Mode
IRANGE	QUANT	1,00000E-005	&Max Current (mA)
AREA	QUANT	1,00000E+000	Electrode &Area (cm^2)
ELECTRODETYPE	SELECTOR	0	Electrode Type
STRIPPING	TOGGLE	F	Used for Stripping
POLARITY	TOGGLE	F	Signal Polarity
CONDIT	TWOPARAM	F	1,50000E+001	0,00000E+000	Conditionin&g	Time(s)	E(V)
DELAY	TWOPARAM	F	3,00000E+001	0,00000E+000	Init. De&lay	Time(s)	Stab.(mV/s)
EQDELAY	QUANT	1,00000E+001	Equil. &Time (s)
IRCOMP	SELECTOR	0	IRCom&p
PFCOR	QUANT	5,00000E+001	PF Corr. (ohm)
SAMPLINGMODE	SELECTOR	0	Sampling &Mode
EOC	QUANT	0	Open Circuit (V)
PSTATMODEL	IQUANT	48	Pstat Model
PSTATSECTION	LABEL	IFC1000-09004	Pstat Section
PSTATSERIALNO	LABEL	09004	Pstat Serial Number
CTRLMODE	IQUANT	1	Control Mode
ELECTROMETER	IQUANT	0	RE=0 or CS=1
IESTAB	IQUANT	2	I/E Stability
CASPEED	IQUANT	4	Control Amp Speed
CONVENTION	IQUANT	1	Current Convention
ICHRANGE	IQUANT	2	Ich Range
ICHRANGEMODE	TOGGLE	F	Ich Auto Range
ICHOFFSETENABLE	TOGGLE	F	Ich Offset Enable
ICHOFFSET	QUANT	0	Ich Offset (V)
ICHFILTER	IQUANT	3	Ich Filter
VCHRANGE	IQUANT	2	Vch Range
VCHRANGEMODE	TOGGLE	F	Vch Auto Range
VCHOFFSETENABLE	TOGGLE	F	Vch Offset Enable
VCHOFFSET	QUANT	0	Vch Offset (V)
VCHFILTER	IQUANT	3	Vch Filter
IERANGELOWERLIMIT	IQUANT	4	I/E Range Lower Limit
IERANGEMODE	TOGGLE	T	I/E AutoRange
IERANGE	IQUANT	5	I/E Range
ACHSELECT	IQUANT	0	Ach Select
ACHRANGE	IQUANT	2	Ach Range
ACHOFFSETENABLE	TOGGLE	F	Ach Offset Enable
ACHOFFSET	QUANT	0	Ach Offset (V)
ACHFILTER	IQUANT	1	Ach Filter
CABLEID	IQUANT	14	Cable ID
DCCALDATE	LABEL	3/18/2022	DC Calibration Date
ACCALDATE	LABEL	3/10/2016	AC Calibration Date
FRAMEWORKVERSION	QUANT	7,05	Framework Version
INSTRUMENTVERSION	LABEL	4.21	Instrument Version
CURVE1	TABLE
	Pt	T	Vf	Im	Vu	Sig	Ach	IERange	Over	Temp
	#	s	V vs. Ref.	A	V	V	V	#	bits	deg C
	0	0,033333	9,97968E-002	-6,92755E-006	0,00000E+000	1,00006E-001	0,00000E+000	7	...........	-32768,00
	15	0,533333	1,14711E-001	-6,45472E-006	0,00000E+000	1,14995E-001	0,00000E+000	7	...........	-32768,00
	30	1,03333	1,29826E-001	-6,10419E-006	0,00000E+000	1,29996E-001	0,00000E+000	7	...........	-32768,00
	45	1,53333	1,44840E-001	-5,83118E-006	0,00000E+000	1,44997E-001	0,00000E+000	7	...........	-32768,00
	60	2,03333	1,59855E-001	-5,61866E-006	0,00000E+000	1,59999E-001	0,00000E+000	7	...........	-32768,00
	75	2,53333	1,74769E-001	-5,43287E-006	0,00000E+000	1,75000E-001	0,00000E+000	7	...........	-32768,00
	90	3,03333	1,89783E-001	-5,25677E-006	0,00000E+000	1,90001E-001	0,00000E+000	7	...........	-32768,00
	105	3,53333	2,04798E-001	-5,14048E-006	0,00000E+000	2,05002E-001	0,00000E+000	7	...........	-32768,00
	120	4,03333	2,19812E-001	-5,01651E-006	0,00000E+000	2,20003E-001	0,00000E+000	7	...........	-32768,00
	135	4,53333	2,34827E-001	-4,88284E-006	0,00000E+000	2,35005E-001	0,00000E+000	7	...........	-32768,00
	150	5,03333	2,49741E-001	-4,77558E-006	0,00000E+000	2,50006E-001	0,00000E+000	7	...........	-32768,00
	165	5,53333	2,64855E-001	-4,65629E-006	0,00000E+000	2,64994E-001	0,00000E+000	7	...........	-32768,00
	180	6,03333	2,79770E-001	-4,55403E-006	0,00000E+000	2,79996E-001	0,00000E+000	7	...........	-32768,00
	195	6,53333	2,94784E-001	-4,41770E-006	0,00000E+000	2,94997E-001	0,00000E+000	7	...........	-32768,00
	210	7,03333	3,09698E-001	-4,25730E-006	0,00000E+000	3,09998E-001	0,00000E+000	7	...........	-32768,00
	225	7,53333	3,24913E-001	-4,06516E-006	0,00000E+000	3,24999E-001	0,00000E+000	7	...........	-32768,00
	240	8,03333	3,39827E-001	-3,79015E-006	0,00000E+000	3,40000E-001	0,00000E+000	7	...........	-32768,00
	255	8,53333	3,54842E-001	-3,42191E-006	0,00000E+000	3,55002E-001	0,00000E+000	7	...........	-32768,00
	270	9,03333	3,69756E-001	-2,88592E-006	0,00000E+000	3,70003E-001	0,00000E+000	7	...........	-32768,00
	285	9,5333	3,84871E-001	-2,13073E-006	0,00000E+000	3,85004E-001	0,00000E+000	7	...........	-32768,00
	300	10,0333	3,99785E-001	-1,21781E-006	0,00000E+000	4,00005E-001	0,00000E+000	7	...........	-32768,00
	315	10,5333	4,14799E-001	-1,91950E-007	0,00000E+000	4,14994E-001	0,00000E+000	7	...........	-32768,00
	330	11,0333	4,29814E-001	7,65410E-007	0,00000E+000	4,29995E-001	0,00000E+000	7	...........	-32768,00
	345	11,5333	4,44828E-001	1,83104E-006	0,00000E+000	4,44996E-001	0,00000E+000	7	...........	-32768,00
	360	12,0333	4,59843E-001	3,41360E-006	0,00000E+000	4,59998E-001	0,00000E+000	7	...........	-32768,00
	375	12,5333	4,74857E-001	5,96489E-006	0,00000E+000	4,74999E-001	0,00000E+000	7	...........	-32768,00
	390	13,0333	4,89771E-001	9,87712E-006	0,00000E+000	4,90000E-001	0,00000E+000	8	...........	-32768,00
	405	13,5333	5,04786E-001	1,54695E-005	0,00000E+000	5,05001E-001	0,00000E+000	8	...........	-32768,00
	420	14,0333	5,20001E-001	2,30229E-005	0,00000E+000	5,20002E-001	0,00000E+000	8	...........	-32768,00
	435	14,5333	5,34815E-001	3,28213E-005	0,00000E+000	5,35004E-001	0,00000E+000	8	...........	-32768,00
	450	15,0333	5,49829E-001	4,50684E-005	0,00000E+000	5,50005E-001	0,00000E+000	8	...........	-32768,00
	465	15,5333	5,64844E-001	5,94904E-005	0,00000E+000	5,65006E-001	0,00000E+000	8	...........	-32768,00
	480	16,0333	5,79858E-001	7,49246E-005	0,00000E+000	5,79995E-001	0,00000E+000	8	...........	-32768,00
	495	16,5333	5,94872E-001	8,88254E-005	0,00000E+000	5,94996E-001	0,00000E+000	8	...........	-32768,00
	510	17,0333	6,09787E-001	9,44525E-005	0,00000E+000	6,09997E-001	0,00000E+000	9	...........	-32768,00
	525	17,5333	6,24901E-001	7,39090E-005	0,00000E+000	6,24998E-001	0,00000E+000	8	...........	-32768,00
	540	18,0333	6,39916E-001	2,02468E-005	0,00000E+000	6,40000E-001	0,00000E+000	8	...........	-32768,00
	555	18,5333	6,54830E-001	1,22791E-005	0,00000E+000	6,55001E-001	0,00000E+000	8	...........	-32768,00
	570	19,0333	6,69945E-001	9,36265E-006	0,00000E+000	6,70002E-001	0,00000E+000	8	...........	-32768,00
	585	19,5333	6,84959E-001	7,88228E-006	0,00000E+000	6,85003E-001	0,00000E+000	7	...........	-32768,00
	600	20,0333	6,99873E-001	6,94464E-006	0,00000E+000	7,00004E-001	0,00000E+000	7	...........	-32768,00
	615	20,5333	7,14788E-001	6,31442E-006	0,00000E+000	7,15006E-001	0,00000E+000	7	...........	-32768,00
	630	21,0333	7,29902E-001	5,82922E-006	0,00000E+000	7,29994E-001	0,00000E+000	7	...........	-32768,00
	645	21,5333	7,44917E-001	5,50108E-006	0,00000E+000	7,44995E-001	0,00000E+000	7	...........	-32768,00
	660	22,0333	7,59931E-001	5,21705E-006	0,00000E+000	7,59997E-001	0,00000E+000	7	...........	-32768,00
	675	22,5333	7,74945E-001	5,00085E-006	0,00000E+000	7,74998E-001	0,00000E+000	7	...........	-32768,00
	690	23,0333	7,89960E-001	4,83010E-006	0,00000E+000	7,89999E-001	0,00000E+000	7	...........	-32768,00
	705	23,5333	7,94965E-001	4,40839E-006	0,00000E+000	7,94999E-001	0,00000E+000	7	...........	-32768,00
	720	24,0333	7,79850E-001	3,71267E-006	0,00000E+000	7,79998E-001	0,00000E+000	7	...........	-32768,00
	735	24,5333	7,64936E-001	3,21679E-006	0,00000E+000	7,64997E-001	0,00000E+000	7	...........	-32768,00
	750	25,0333	7,49921E-001	2,81780E-006	0,00000E+000	7,49996E-001	0,00000E+000	7	...........	-32768,00
	765	25,5333	7,35007E-001	2,47596E-006	0,00000E+000	7,34995E-001	0,00000E+000	7	...........	-32768,00
	780	26,0333	7,19993E-001	2,21298E-006	0,00000E+000	7,20006E-001	0,00000E+000	7	...........	-32768,00
	795	26,5333	7,04878E-001	1,98241E-006	0,00000E+000	7,05005E-001	0,00000E+000	7	...........	-32768,00
	810	27,0333	6,89864E-001	1,78359E-006	0,00000E+000	6,90004E-001	0,00000E+000	7	...........	-32768,00
	825	27,5333	6,74849E-001	1,60281E-006	0,00000E+000	6,75002E-001	0,00000E+000	7	...........	-32768,00
	840	28,0333	6,59835E-001	1,44074E-006	0,00000E+000	6,60001E-001	0,00000E+000	7	...........	-32768,00
	855	28,5333	6,44820E-001	1,29872E-006	0,00000E+000	6,45000E-001	0,00000E+000	7	...........	-32768,00
	870	29,0333	6,29906E-001	1,16239E-006	0,00000E+000	6,29999E-001	0,00000E+000	7	...........	-32768,00
	885	29,5333	6,14992E-001	1,03574E-006	0,00000E+000	6,14998E-001	0,00000E+000	7	...........	-32768,00
	900	30,0333	5,99977E-001	9,11437E-007	0,00000E+000	5,99996E-001	0,00000E+000	7	...........	-32768,00
	915	30,5333	5,84963E-001	7,76437E-007	0,00000E+000	5,84995E-001	0,00000E+000	7	...........	-32768,00
	930	31,0333	5,69848E-001	6,32750E-007	0,00000E+000	5,69994E-001	0,00000E+000	7	...........	-32768,00
	945	31,5333	5,54834E-001	4,87057E-007	0,00000E+000	5,55005E-001	0,00000E+000	7	...........	-32768,00
	960	32,0333	5,39820E-001	3,61414E-007	0,00000E+000	5,40004E-001	0,00000E+000	7	...........	-32768,00
	975	32,5333	5,24905E-001	2,89905E-007	0,00000E+000	5,25003E-001	0,00000E+000	7	...........	-32768,00
	990	33,0333	5,09791E-001	2,06366E-007	0,00000E+000	5,10002E-001	0,00000E+000	7	...........	-32768,00
	1005	33,5333	4,94776E-001	1,42876E-007	0,00000E+000	4,95000E-001	0,00000E+000	7	...........	-32768,00
	1020	34,0333	4,79862E-001	5,13167E-008	0,00000E+000	4,79999E-001	0,00000E+000	7	...........	-32768,00
	1035	34,5333	4,64948E-001	-8,53535E-008	0,00000E+000	4,64998E-001	0,00000E+000	7	...........	-32768,00
	1050	35,0333	4,49833E-001	-4,90018E-007	0,00000E+000	4,49997E-001	0,00000E+000	7	...........	-32768,00
	1065	35,5333	4,34919E-001	-8,97660E-006	0,00000E+000	4,34996E-001	0,00000E+000	7	...........	-32768,00
	1080	36,0333	4,19804E-001	-2,19100E-005	0,00000E+000	4,19994E-001	0,00000E+000	8	...........	-32768,00
	1095	36,5333	4,04890E-001	-2,98142E-005	0,00000E+000	4,05006E-001	0,00000E+000	8	...........	-32768,00
	1110	37,0333	3,89876E-001	-3,25335E-005	0,00000E+000	3,90004E-001	0,00000E+000	8	...........	-32768,00
	1125	37,5333	3,74861E-001	-3,14611E-005	0,00000E+000	3,75003E-001	0,00000E+000	8	...........	-32768,00
	1140	38,0333	3,59847E-001	-2,86817E-005	0,00000E+000	3,60002E-001	0,00000E+000	8	...........	-32768,00
	1155	38,5333	3,44832E-001	-2,56416E-005	0,00000E+000	3,45001E-001	0,00000E+000	8	...........	-32768,00
	1170	39,0333	3,29818E-001	-2,29423E-005	0,00000E+000	3,30000E-001	0,00000E+000	8	...........	-32768,00
	1185	39,5333	3,14803E-001	-2,07006E-005	0,00000E+000	3,14998E-001	0,00000E+000	8	...........	-32768,00
	1200	40,0333	2,99789E-001	-1,88231E-005	0,00000E+000	2,99997E-001	0,00000E+000	8	...........	-32768,00
	1215	40,5333	2,84775E-001	-1,72897E-005	0,00000E+000	2,84996E-001	0,00000E+000	8	...........	-32768,00
	1230	41,0333	2,69760E-001	-1,59902E-005	0,00000E+000	2,69995E-001	0,00000E+000	8	...........	-32768,00
	1245	41,5333	2,54846E-001	-1,49011E-005	0,00000E+000	2,55006E-001	0,00000E+000	8	...........	-32768,00
	1260	42,0333	2,39931E-001	-1,39924E-005	0,00000E+000	2,40005E-001	0,00000E+000	8	...........	-32768,00
	1275	42,5333	2,24717E-001	-1,32341E-005	0,00000E+000	2,25004E-001	0,00000E+000	8	...........	-32768,00
	1290	43,0333	2,09803E-001	-1,25459E-005	0,00000E+000	2,10003E-001	0,00000E+000	8	...........	-32768,00
	1305	43,5333	1,94788E-001	-1,19880E-005	0,00000E+000	1,95001E-001	0,00000E+000	8	...........	-32768,00
	1320	44,0333	1,79774E-001	-1,14969E-005	0,00000E+000	1,80000E-001	0,00000E+000	8	...........	-32768,00
	1335	44,5333	1,64659E-001	-1,11194E-005	0,00000E+000	1,64999E-001	0,00000E+000	8	...........	-32768,00
	1350	45,0333	1,49845E-001	-1,07219E-005	0,00000E+000	1,49998E-001	0,00000E+000	8	...........	-32768,00
	1365	45,5333	1,34730E-001	-1,04279E-005	0,00000E+000	1,34997E-001	0,00000E+000	8	...........	-32768,00
	1380	46,0333	1,19816E-001	-1,02074E-005	0,00000E+000	1,19995E-001	0,00000E+000	8	...........	-32768,00
	1395	46,5333	1,04802E-001	-1,00470E-005	0,00000E+000	1,04994E-001	0,00000E+000	8	...........	-32768,00
	1400	46,7	9,98969E-002	-1,00103E-005	0,00000E+000	1,00006E-001	0,00000E+000	8	...........	-32768,00